Metasequoia Document
Format Text Ver 1.0

Scene {
	pos 53.1335 76.0035 2400.0000
	lookat 0.0000 0.0000 0.0000
	head -0.8636
	pich 1.0736
	bank 0.0000
	ortho 0
	zoom2 3.1250
	amb 0.250 0.250 0.250
	dirlights 1 {
		light {
			dir 0.408 0.408 0.816
			color 1.000 1.000 1.000
		}
	}
}
Material 14 {
	"bk" col(0.137 0.137 0.137 1.000) dif(0.800) amb(0.600) emi(0.000) spc(0.000) power(5.00)
	"gray1" col(0.706 0.702 0.694 1.000) dif(0.800) amb(0.600) emi(0.000) spc(0.000) power(5.00)
	"gray2" col(0.353 0.353 0.353 1.000) dif(0.800) amb(0.600) emi(0.000) spc(0.000) power(5.00)
	"gray3" col(0.141 0.141 0.141 1.000) dif(0.800) amb(0.600) emi(0.000) spc(0.000) power(5.00)
	"green_carki" col(0.392 0.506 0.380 1.000) dif(0.800) amb(0.600) emi(0.000) spc(0.000) power(5.00)
	"green_number" col(0.071 0.227 0.102 1.000) dif(0.800) amb(0.600) emi(0.000) spc(0.000) power(5.00)
	"headlight" col(0.847 0.855 0.820 1.000) dif(0.800) amb(0.600) emi(0.000) spc(0.000) power(5.00)
	"isuzu_10t_bk" col(0.173 0.184 0.196 1.000) dif(0.800) amb(0.600) emi(0.000) spc(0.000) power(5.00)
	"isuzu_10t_carmaine" col(0.557 0.259 0.216 1.000) dif(0.800) amb(0.600) emi(0.000) spc(0.000) power(5.00)
	"isuzu_10t_green" col(0.075 0.467 0.400 1.000) dif(0.800) amb(0.600) emi(0.000) spc(0.000) power(5.00)
	"isuzu_10t_mirror" col(0.706 0.722 0.737 1.000) dif(0.800) amb(0.600) emi(0.000) spc(0.000) power(5.00)
	"orenge" col(0.937 0.392 0.094 1.000) dif(0.800) amb(0.600) emi(0.000) spc(0.000) power(5.00)
	"red" col(0.757 0.110 0.110 1.000) dif(0.800) amb(0.600) emi(0.000) spc(0.000) power(5.00)
	"wh" col(0.965 0.965 0.965 1.000) dif(0.800) amb(0.600) emi(0.000) spc(0.000) power(5.00)
}
Object "obj1" {
	visible 15
	locking 0
	shading 1
	facet 59.5
	color 0.898 0.498 0.698
	color_type 0
	vertex 1482 {
		55.6470 139.6224 219.0060
		55.8000 137.7629 218.9686
		55.7375 137.7359 220.9832
		55.5843 139.5955 221.0216
		59.0429 139.3302 186.5523
		59.3242 137.4721 186.5388
		62.9124 137.7700 176.5217
		62.6311 139.6282 176.5352
		62.1100 140.2619 218.5592
		62.3866 138.4042 218.6209
		62.3746 138.4913 220.6346
		62.0982 140.3491 220.5729
		64.6246 138.6527 220.0537
		64.3190 140.5054 219.9846
		63.4299 138.5122 218.3658
		63.1241 140.3650 218.2977
		65.6656 140.7593 218.0798
		65.9063 138.8959 218.1095
		63.9296 138.6138 217.8305
		63.6903 140.4774 217.8009
		67.3745 138.3889 194.4869
		67.1347 140.1336 194.4745
		69.1125 140.4157 194.7386
		69.3523 138.6710 194.7508
		69.2969 138.3742 192.8016
		69.0667 140.1539 192.8678
		67.1112 140.1318 193.6497
		67.3413 138.3536 193.5840
		68.5839 138.2618 191.5977
		68.3277 140.0605 191.6228
		66.6494 139.7966 192.8606
		66.8270 138.2590 192.7594
		-70.5947 152.9470 176.5068
		-63.0807 153.0125 175.0124
		-56.7105 153.0682 170.7558
		-52.4541 153.1053 164.3850
		-50.9594 153.1184 156.8708
		-52.4541 153.1053 149.3567
		-56.7105 153.0682 142.9856
		-63.0807 153.0125 138.7293
		-70.5947 152.9470 137.2347
		-78.1089 152.8814 138.7293
		-84.4790 152.8258 142.9856
		-88.7354 152.7887 149.3567
		-90.2300 152.7756 156.8708
		-88.7354 152.7887 164.3850
		-84.4790 152.8258 170.7558
		-78.1089 152.8814 175.0124
		-70.3982 130.4296 187.0802
		-58.8382 130.5305 184.7805
		-49.0379 130.6160 178.2318
		-42.4896 130.6732 168.4317
		-40.1902 130.6933 156.8708
		-42.4896 130.6732 145.3098
		-49.0379 130.6160 135.5099
		-58.8382 130.5305 128.9611
		-70.3982 130.4296 126.6616
		-81.9583 130.3288 128.9611
		-91.7585 130.2432 135.5099
		-98.3068 130.1861 145.3098
		-100.6063 130.1660 156.8708
		-98.3068 130.1861 168.4317
		-91.7585 130.2432 178.2318
		-81.9583 130.3288 184.7805
		-70.3986 130.4297 156.8708
		-70.5948 152.9469 156.8708
		-100.8000 152.3598 156.8708
		-98.5005 152.3799 145.3098
		-98.5005 152.3799 168.4317
		-91.9522 152.4370 135.5099
		-91.9522 152.4370 178.2318
		-82.1521 152.5225 128.9611
		-82.1521 152.5225 184.7805
		-70.5920 152.6234 126.6616
		-70.5920 152.6234 187.0802
		-59.0319 152.7243 184.7805
		-59.0319 152.7243 128.9611
		-49.2316 152.8098 178.2318
		-49.2316 152.8098 135.5099
		-42.6833 152.8669 145.3098
		-42.6833 152.8669 168.4317
		-40.3838 152.8869 156.8708
		-73.6345 77.3790 117.3828
		-73.6345 77.3790 158.3530
		-9.3418 77.9401 230.1056
		66.3042 78.6002 183.3933
		67.0441 78.6067 122.9315
		67.0748 78.6070 158.3763
		5.1798 78.0668 228.5244
		67.0379 78.6067 134.8032
		54.7414 78.4994 217.0178
		-73.6345 77.3790 194.3757
		-73.6345 77.3790 120.2598
		-74.2938 152.9172 117.3828
		-73.9251 110.6696 117.3828
		-9.6323 111.2307 228.3682
		-9.9572 148.4569 220.9290
		-9.9790 150.9559 158.3530
		-9.9791 150.9722 122.9315
		64.3528 111.8763 183.3933
		60.5154 145.9481 183.3933
		62.5610 145.6757 158.3530
		62.8670 145.6783 122.9315
		65.7338 111.8884 158.3763
		65.8854 111.8897 122.9315
		-31.7308 155.7970 122.9315
		-32.9637 155.7863 158.3530
		4.8892 111.3574 226.5665
		4.5644 148.5835 219.7454
		4.5412 151.2426 158.3530
		4.5407 151.2952 122.9315
		-31.7308 155.7970 134.8032
		-9.9790 150.9559 134.8032
		4.5410 151.2584 134.8032
		65.8163 111.8891 134.8032
		62.8670 145.6783 134.8032
		53.3128 111.7800 214.8539
		-74.2688 150.0589 194.3757
		50.8895 145.5898 211.0059
		-54.4684 152.6466 190.1541
		-9.9845 151.5846 183.3846
		4.5368 151.7439 183.3846
		-36.6561 154.9994 183.3846
		-74.2938 152.9172 120.2598
		-54.2560 128.3095 158.3530
		-54.2560 128.3095 125.6923
		-38.8340 128.4448 158.3530
		-39.1671 128.4414 134.4911
		-54.2560 128.3095 185.6361
		-41.5415 128.4207 180.2366
		-73.9251 110.6696 158.3530
		-74.0775 128.1354 190.6412
		-74.0775 128.1354 158.3530
		-74.0775 128.1354 121.6359
		-73.9251 110.6696 120.2598
		-73.9251 110.6696 194.3757
		-39.3998 155.1168 134.4911
		-74.2938 152.9172 121.6359
		-54.4805 154.0298 125.6923
		-41.7770 155.4068 180.2366
		-74.2753 150.7941 190.6412
		-54.4838 154.4121 185.6361
		-39.0705 155.5462 158.3530
		-73.6345 77.3790 211.0748
		-73.9251 110.6696 211.0748
		-74.2434 147.1412 211.0748
		-9.9791 150.9722 212.4457
		4.5431 151.0182 211.3301
		30.2210 147.2514 215.7416
		30.5323 111.5812 221.7739
		30.8228 78.2906 223.4323
		48.5598 148.1579 206.5226
		55.9747 148.2549 183.3933
		58.2863 147.6187 158.3530
		58.5419 147.6973 134.8032
		58.5422 147.6592 122.9315
		30.1986 149.8114 209.0745
		30.1859 151.2676 183.3846
		30.1904 150.7501 158.3530
		30.1891 150.8908 134.8032
		30.1889 150.9331 122.9315
		-53.8130 77.5520 225.7898
		-54.1036 110.8426 224.0524
		-54.4197 147.0627 216.6134
		-37.8519 150.7290 211.0748
		-37.5051 110.9874 225.9018
		-37.8300 148.2136 218.4632
		-37.2146 77.6969 227.6396
		-54.4417 149.5780 211.0748
		-54.4805 154.0298 119.2323
		-54.4805 154.0298 123.8069
		-78.1806 77.3394 226.2396
		-44.7533 77.6311 231.2510
		-60.9657 77.4896 231.2510
		-45.0438 110.9216 229.5136
		-78.4711 110.6299 224.5025
		-45.3422 145.1089 225.1940
		-78.7593 143.6530 220.1833
		-61.6148 151.8834 219.0601
		-61.5552 145.0394 225.1940
		-61.2561 110.7802 229.5136
		-45.4047 152.2724 219.0601
		-78.8106 149.5389 216.2411
		-61.6148 151.8834 207.7284
		-45.4047 152.2724 207.7284
		-44.7533 77.6311 207.7284
		-45.0438 110.9216 207.7284
		-45.3428 145.1787 207.7284
		-78.8106 149.5389 207.7284
		-60.9657 77.4896 207.7284
		-61.2561 110.7802 207.7284
		-78.1806 77.3394 207.7284
		-78.4711 110.6299 207.7284
		-61.5516 144.6272 207.7284
		-78.7746 145.4106 207.7284
		30.8228 78.2906 122.9315
		5.1798 78.0668 122.9315
		-9.3418 77.9401 122.9315
		-31.0497 77.7507 122.9315
		-53.8130 77.5520 119.2323
		59.1455 78.5378 122.9315
		58.8550 111.8283 122.9315
		30.5323 111.5812 122.9315
		4.8892 111.3574 122.9315
		-9.6323 111.2307 122.9315
		-31.3402 111.0412 122.9315
		-54.1036 110.8426 119.2323
		-65.3679 108.4810 101.1497
		-65.6747 143.6425 101.1497
		-65.6747 143.6425 43.3863
		-65.3679 108.4810 43.3863
		-28.9192 108.7990 101.1497
		-29.1765 138.2803 101.1497
		-29.1765 138.2803 43.3863
		-28.9192 108.7990 43.3863
		-35.3150 143.9076 101.1497
		-35.3150 143.9076 43.3863
		-35.0082 108.7459 101.1497
		-35.0082 108.7459 43.3863
		-58.9771 115.5074 3.6228
		-59.2140 142.6514 3.6228
		-59.2140 142.6514 -32.4961
		-58.9771 115.5074 -32.4961
		-33.4099 115.7306 3.6228
		-33.4099 115.7306 -32.4961
		-33.3935 115.7308 3.6228
		-33.3935 115.7308 -32.4961
		-33.6304 142.8747 -32.4961
		-33.6304 142.8747 3.6228
		-75.5481 147.6073 101.6760
		-75.5481 147.6073 105.1615
		-23.9627 108.0768 105.1615
		-23.9627 108.0768 101.6760
		-29.9229 148.0054 101.6760
		-29.9229 148.0054 105.1615
		-75.5481 147.6073 -38.7034
		-75.5481 147.6073 -35.0550
		-23.9627 108.0768 -35.0550
		-23.9627 108.0768 -38.7034
		-29.9229 148.0054 -38.7034
		-29.9229 148.0054 -35.0550
		24.4960 165.0276 223.8895
		37.4995 165.9361 223.8895
		50.5231 165.2548 223.8895
		50.9866 157.9141 223.8895
		50.6509 150.6043 223.8895
		37.6415 149.6578 223.8895
		24.6238 150.3771 223.8895
		24.1543 157.6798 223.8895
		37.5705 157.7969 223.8895
		25.1570 164.2988 226.5752
		37.5115 165.1223 227.0916
		49.8820 164.5146 226.5752
		50.3195 157.9082 227.0916
		49.9971 151.3293 226.5752
		37.6393 150.4717 227.0916
		25.2721 151.1135 226.5752
		24.8300 157.6858 227.0916
		37.5754 157.7970 227.6071
		3.5388 146.0682 219.3965
		3.5520 144.5479 221.2943
		1.6728 144.5315 221.2943
		1.6596 146.0517 219.3965
		6.6019 148.3127 226.2549
		6.6175 146.5157 226.8046
		4.8583 146.8844 227.8713
		4.8426 148.6812 227.3212
		7.1616 148.4743 226.5715
		7.1774 146.6775 227.1215
		6.3959 147.1931 229.0597
		6.3802 148.9902 228.5112
		8.0779 148.5311 226.8094
		8.0935 146.7340 227.3582
		8.0217 147.3447 229.2792
		8.0060 149.1415 228.7294
		56.3640 140.9547 202.8024
		56.4030 139.1628 203.3669
		57.6253 138.7127 201.6595
		57.5863 140.5047 201.0934
		-73.6345 77.3790 201.2599
		-73.9251 110.6696 201.2599
		-74.2653 149.6565 201.2599
		-54.4614 151.8416 201.2599
		-37.8715 152.9762 201.2599
		-9.9791 150.9722 201.2599
		4.5428 151.0520 201.2599
		30.1965 150.0535 201.2599
		53.2205 148.0687 200.8900
		58.3082 145.5271 201.2932
		62.2554 111.8580 201.8725
		64.3807 78.5835 202.1626
		52.0042 148.1331 203.9578
		56.0425 145.5781 207.4261
		59.7662 111.8363 210.4013
		60.9185 78.5532 211.6421
		-26.1899 111.0862 227.2694
		-26.0096 77.7947 228.9993
		-26.0426 148.3165 219.8611
		-25.5261 150.8366 211.4153
		-24.2621 150.8312 201.2599
		-21.8953 151.4807 183.3846
		-20.0506 150.8680 158.3530
		-20.0053 150.8683 122.9315
		-20.0205 150.8683 134.8032
		-19.6587 111.1431 122.9315
		-19.3681 77.8526 122.9315
		-26.2268 155.5739 134.8032
		-26.2286 155.7729 122.9315
		-25.8386 111.0892 122.9315
		-26.8353 155.7186 158.3530
		-27.7356 153.9371 183.3846
		-29.2158 152.6445 201.2599
		-29.7106 150.8001 211.2015
		-30.0446 148.2815 219.6453
		-29.8919 111.0539 227.0224
		-29.6569 77.7628 228.7580
		-25.5481 77.7987 122.9315
		48.4324 148.9248 122.9315
		48.7570 111.7402 122.9315
		49.0474 78.4497 122.9315
		48.4324 148.9377 134.8032
		48.4334 148.8200 158.3530
		48.4298 149.2328 183.3907
		48.4352 148.6155 200.9479
		58.4588 78.5318 225.6898
		57.5148 111.8167 225.0634
		55.4757 139.9061 222.4374
		57.9820 111.8207 212.5532
		58.9557 78.5361 213.2362
		55.9659 140.6693 210.1006
		50.0959 144.3889 209.6024
		54.5136 143.5832 208.0775
		53.8067 142.9352 219.6542
		50.7213 143.7971 213.9641
		-39.6690 114.8657 113.5647
		-39.9051 141.9211 113.5647
		-39.9617 148.4126 108.8605
		-39.9617 148.4126 -41.1694
		-39.9051 141.9211 -46.5148
		-39.6690 114.8657 -46.5148
		-24.8024 142.7805 105.1615
		-24.8024 142.7805 101.6760
		-24.8767 142.1633 -35.0550
		-24.8767 142.1633 -38.7034
		-75.5481 147.6073 29.1133
		-75.5481 147.6073 32.7617
		-23.9627 108.0768 32.7617
		-23.9627 108.0768 29.1133
		-29.9229 148.0054 29.1133
		-29.9229 148.0054 32.7617
		-24.8767 142.1633 32.7617
		-24.8767 142.1633 29.1133
		-33.2048 152.6043 -127.7867
		-33.2048 152.6043 -73.9036
		-42.2796 152.5251 -63.9536
		-32.8597 113.0603 -127.7867
		-32.8597 113.0603 -73.9036
		-41.9345 112.9812 -63.9536
		-42.2796 152.5251 -49.8032
		-41.9345 112.9812 -49.8032
		-22.0835 113.1544 -68.7990
		-22.0835 113.1544 -127.7867
		-22.4285 152.6984 -127.7867
		-22.4285 152.6984 -68.7990
		-33.2048 152.6043 -178.2670
		-42.2796 152.5251 -189.3518
		-32.8597 113.0603 -178.2670
		-41.9345 112.9812 -189.3518
		-42.2796 152.5251 -204.6364
		-41.9345 112.9812 -204.6364
		-22.0835 113.1544 -183.3717
		-22.4285 152.6984 -183.3717
		-70.5947 152.9470 -69.6061
		-63.0807 153.0125 -71.1008
		-56.7105 153.0682 -75.3574
		-52.4541 153.1053 -81.7278
		-50.9594 153.1184 -89.2421
		-52.4541 153.1053 -96.7564
		-56.7105 153.0682 -103.1269
		-63.0807 153.0125 -107.3834
		-70.5947 152.9470 -108.8781
		-78.1089 152.8814 -107.3834
		-84.4790 152.8258 -103.1269
		-88.7354 152.7887 -96.7564
		-90.2300 152.7756 -89.2421
		-88.7354 152.7887 -81.7278
		-84.4790 152.8258 -75.3574
		-78.1089 152.8814 -71.1008
		-70.2530 113.7843 -59.0329
		-58.6929 113.8852 -61.3325
		-48.8927 113.9707 -67.8810
		-42.3444 114.0279 -77.6815
		-40.0449 114.0480 -89.2421
		-42.3444 114.0279 -100.8027
		-48.8927 113.9707 -110.6033
		-58.6929 113.8852 -117.1518
		-70.2530 113.7843 -119.4514
		-81.8131 113.6835 -117.1518
		-91.6133 113.5979 -110.6033
		-98.1616 113.5408 -100.8027
		-100.4610 113.5207 -89.2421
		-98.1616 113.5408 -77.6815
		-91.6133 113.5979 -67.8810
		-81.8131 113.6835 -61.3325
		-70.2533 113.7843 -89.2421
		-70.5948 152.9469 -89.2421
		-100.8000 152.3598 -89.2421
		-98.5005 152.3799 -100.8027
		-98.5005 152.3799 -77.6815
		-91.9522 152.4370 -110.6033
		-91.9522 152.4370 -67.8810
		-82.1521 152.5225 -117.1518
		-82.1521 152.5225 -61.3325
		-70.5920 152.6234 -119.4514
		-70.5920 152.6234 -59.0329
		-59.0319 152.7243 -61.3325
		-59.0319 152.7243 -117.1518
		-49.2316 152.8098 -67.8810
		-49.2316 152.8098 -110.6033
		-42.6833 152.8669 -100.8027
		-42.6833 152.8669 -77.6815
		-40.3838 152.8869 -89.2421
		-70.5947 152.9470 -144.3277
		-63.0807 153.0125 -145.8221
		-56.7105 153.0682 -150.0784
		-52.4541 153.1053 -156.4497
		-50.9594 153.1184 -163.9639
		-52.4541 153.1053 -171.4778
		-56.7105 153.0682 -177.8488
		-63.0807 153.0125 -182.1052
		-70.5947 152.9470 -183.5999
		-78.1089 152.8814 -182.1052
		-84.4790 152.8258 -177.8488
		-88.7354 152.7887 -171.4778
		-90.2300 152.7756 -163.9639
		-88.7354 152.7887 -156.4497
		-84.4790 152.8258 -150.0784
		-78.1089 152.8814 -145.8221
		-70.2530 113.7843 -133.7546
		-58.6929 113.8852 -136.0541
		-48.8927 113.9707 -142.6027
		-42.3444 114.0279 -152.4029
		-40.0449 114.0480 -163.9639
		-42.3444 114.0279 -175.5247
		-48.8927 113.9707 -185.3247
		-58.6929 113.8852 -191.8734
		-70.2530 113.7843 -194.1729
		-81.8131 113.6835 -191.8734
		-91.6133 113.5979 -185.3247
		-98.1616 113.5408 -175.5247
		-100.4610 113.5207 -163.9639
		-98.1616 113.5408 -152.4029
		-91.6133 113.5979 -142.6027
		-81.8131 113.6835 -136.0541
		-70.2533 113.7843 -163.9639
		-70.5948 152.9469 -163.9639
		-100.8000 152.3598 -163.9639
		-98.5005 152.3799 -175.5247
		-98.5005 152.3799 -152.4029
		-91.9522 152.4370 -185.3247
		-91.9522 152.4370 -142.6027
		-82.1521 152.5225 -191.8734
		-82.1521 152.5225 -136.0541
		-70.5920 152.6234 -194.1729
		-70.5920 152.6234 -133.7546
		-59.0319 152.7243 -136.0541
		-59.0319 152.7243 -191.8734
		-49.2316 152.8098 -142.6027
		-49.2316 152.8098 -185.3247
		-42.6833 152.8669 -175.5247
		-42.6833 152.8669 -152.4029
		-40.3838 152.8869 -163.9639
		-20.3239 77.8443 87.2046
		98.5090 159.9388 87.2046
		77.9317 159.7593 87.2046
		99.2165 78.8875 124.3827
		-5.3688 159.0324 87.2046
		-15.3830 147.5127 87.2046
		99.2165 78.8875 119.3867
		18.3651 159.2394 87.2046
		-20.6359 113.6008 87.2046
		18.7605 113.9446 -255.9155
		-4.8995 113.7381 105.2708
		-4.8995 113.7381 -266.5540
		-4.5875 77.9816 105.2708
		-4.5875 77.9816 -266.5540
		-4.3658 151.4964 -256.0940
		-4.3658 151.4964 103.3425
		-3.7243 77.9892 103.3425
		-3.7243 77.9892 -256.0940
		18.7605 113.9446 105.2708
		19.0725 78.1881 105.2708
		18.3651 159.2394 105.2708
		-20.6359 113.6008 105.2708
		-20.3239 77.8443 105.2708
		-15.3830 147.5127 105.2708
		-5.3688 159.0324 105.2708
		16.9615 154.5520 90.0152
		44.4867 148.4922 90.0152
		44.4867 148.4922 -248.4479
		16.9615 154.5520 -248.4479
		-5.8328 152.2306 102.2540
		-5.1847 77.9764 102.2540
		81.2887 78.7310 119.3867
		80.6405 152.9851 119.3867
		78.3269 114.4644 124.3827
		78.6390 78.7080 124.3827
		77.9317 159.7593 124.3827
		77.9317 159.7593 105.2708
		78.3269 114.4644 105.2708
		78.6390 78.7080 105.2708
		98.5090 159.9388 124.3827
		98.5749 152.3979 119.3867
		98.5090 159.9388 105.4834
		80.6405 152.9851 102.2540
		81.2887 78.7310 102.2540
		98.9044 114.6440 124.3827
		98.9044 114.6440 119.3867
		18.7605 113.9446 -266.5540
		-20.6359 113.6008 -266.5540
		-15.3830 147.5127 -266.5540
		-5.3688 159.0324 -266.5540
		-20.3239 77.8443 -266.5540
		18.3651 159.2394 -266.5540
		19.0725 78.1881 -266.5540
		19.5777 78.1881 -255.9155
		18.4310 151.6953 -255.9155
		-4.6124 151.4942 -256.1816
		-4.6124 151.4942 102.5941
		18.4310 151.6953 -256.1816
		79.4773 152.2281 119.8799
		98.5749 152.3979 119.8799
		79.4772 152.2306 102.5941
		-4.4307 151.8657 -256.0076
		-3.7859 77.9886 -256.0076
		19.0725 78.1881 -256.0076
		18.4278 152.0652 -256.0076
		81.1656 78.7300 119.3867
		80.5175 152.9842 119.3867
		98.5805 153.1418 119.3874
		99.2285 78.8876 119.3874
		98.5749 152.3979 87.2046
		77.9975 152.2151 87.2046
		98.5749 152.3979 102.5941
		18.4310 151.6953 87.2046
		-26.8841 160.2404 106.9332
		-26.8841 160.2404 120.4963
		89.0809 153.8541 120.4963
		89.0809 153.8541 106.9332
		86.5504 161.2304 106.9332
		86.5504 161.2304 120.4963
		-70.2931 112.7336 -206.6264
		-70.6383 152.2776 -206.6264
		-55.5154 152.4097 -205.0949
		-55.1703 112.8656 -205.0949
		-60.9174 108.0629 -254.8257
		-46.7140 108.1869 -241.6855
		-31.1167 108.3230 -215.1062
		-31.0623 102.0841 -215.1062
		-46.6596 101.9480 -241.6855
		-60.8630 101.8240 -254.8257
		-69.3152 107.9897 -254.8208
		-55.7887 108.1077 -226.4785
		-46.9976 108.1844 -215.1013
		-46.9431 101.9455 -215.1013
		-55.7343 101.8688 -226.4785
		-69.2608 101.7508 -254.8208
		-49.9712 101.7179 -212.8703
		-49.7606 77.5874 -212.8703
		-35.3870 77.7128 -214.5674
		-35.5979 101.8433 -212.8703
		-35.3873 77.7128 -212.8703
		-58.8354 77.5082 -214.5674
		-59.0459 101.6387 -214.5674
		-35.5979 101.8433 -214.5674
		-72.3399 152.2628 -263.9131
		-72.3399 152.2628 -254.8381
		-71.6865 77.3960 -263.9131
		-71.6865 77.3960 -254.8381
		-12.3486 107.2389 -249.8160
		-21.6600 107.1577 -237.8913
		-23.7326 107.1395 -213.9716
		-23.6782 100.9007 -213.9716
		-21.6055 100.9187 -237.8913
		-12.2942 101.0000 -249.8160
		-12.3502 107.2389 -259.8330
		-28.3391 107.0993 -241.3600
		-31.1058 107.0752 -213.9668
		-31.0514 100.8363 -213.9668
		-28.2846 100.8605 -241.3600
		-12.2957 101.0000 -259.8330
		-51.8847 148.2234 -214.6808
		-8.0644 148.6058 -214.6808
		-51.5852 113.8968 -214.6808
		-7.7649 114.2793 -214.6808
		-57.6426 152.3911 -254.8381
		-57.6426 152.3911 -263.9131
		-56.9892 77.5243 -263.9131
		-56.9892 77.5243 -254.8381
		-3.4100 78.1781 -257.7499
		-4.2882 78.2969 102.1199
		-3.1317 78.5578 65.7778
		-1.9001 78.6803 17.7339
		-1.2531 78.6431 -56.5847
		-2.4609 78.5727 -131.1528
		-2.2085 78.3818 -205.2608
		-34.9525 114.9658 -250.4532
		-35.2067 144.0998 -250.4532
		-34.9525 114.9658 -254.1834
		-35.2067 144.0998 -254.1834
		-14.6398 123.5762 -250.4532
		-14.7462 135.7688 -250.4532
		-14.6398 123.5762 -254.1834
		-14.7462 135.7688 -254.1834
		-19.5683 115.1001 -250.4532
		-19.8226 144.2341 -250.4532
		-19.5683 115.1001 -254.1834
		-19.8226 144.2341 -254.1834
		53.1189 148.8343 226.7835
		53.1343 147.0686 227.4272
		53.1280 147.7794 229.3124
		53.1127 149.5452 228.6700
		57.0360 147.6086 228.3816
		56.9898 149.3711 227.7315
		55.9440 146.9762 226.8094
		55.8990 148.7386 226.1600
		59.4724 148.0514 223.9622
		59.4509 146.2755 224.5753
		57.4565 146.1817 224.3064
		57.4767 147.9578 223.6919
		59.7367 140.5158 207.1846
		59.7417 142.1854 206.6247
		61.7386 142.2743 206.8798
		61.7333 140.6046 207.4397
		61.5543 139.9345 205.4779
		61.5726 141.6602 204.9812
		59.5987 141.9067 205.7174
		59.5805 140.1823 206.2131
		60.6357 139.5041 204.1131
		60.6145 141.2400 203.5768
		59.0488 141.6298 204.9244
		59.1229 139.9159 205.4979
		-54.3295 136.7353 218.7345
		-37.7311 136.8801 220.7281
		-54.3295 136.7353 119.2323
		-31.5662 136.9339 122.9315
		-26.0874 136.9817 222.1163
		-29.9980 136.9476 221.8920
		-26.0646 136.9820 122.9315
		-9.8583 137.1233 223.1940
		-9.8583 137.1233 122.9315
		-19.8846 137.0358 122.9315
		4.6633 137.2501 221.8218
		4.6633 137.2501 122.9315
		30.3063 137.4739 217.3953
		30.3063 137.4739 122.9315
		48.5310 137.6329 122.9315
		51.4581 137.6585 211.9085
		57.3837 137.7102 208.7371
		63.1011 137.7600 183.3933
		64.5376 137.7727 158.3589
		64.7903 137.7748 134.8032
		64.8062 137.7750 122.9315
		58.6289 137.7211 122.9315
		61.0715 137.7424 201.4276
		63.9589 139.4976 189.1957
		64.1347 137.7251 189.0553
		65.5250 139.7817 187.8236
		65.7050 137.9330 187.6807
		60.6516 139.3850 187.4178
		60.7183 137.5455 187.2675
		64.6886 139.6895 178.2601
		64.7638 137.8291 178.0811
		7.4908 163.9438 223.8895
		12.7993 164.7056 223.8895
		18.1225 164.0366 223.8895
		18.3436 157.4282 223.8895
		18.2375 150.8510 223.8895
		12.9271 150.0550 223.8895
		7.6059 150.7582 223.8895
		7.3830 157.3325 223.8895
		12.8632 157.3803 223.8895
		7.7640 163.2851 226.5752
		12.8075 163.9731 227.0916
		17.8642 163.3733 226.5752
		18.0714 157.4258 227.0916
		17.9678 151.5064 226.5752
		12.9226 150.7876 227.0916
		7.8676 151.4182 226.5752
		7.6586 157.3348 227.0916
		12.8651 157.3803 227.6071
		51.4132 148.0295 227.3619
		52.8360 148.0419 227.3619
		52.8355 148.0904 228.8193
		51.4127 148.0780 228.8193
		51.5101 136.9232 226.6566
		52.9328 136.9355 226.6566
		52.9456 135.4774 226.6566
		51.5227 135.4650 226.6566
		51.5070 137.2833 227.1632
		52.9298 137.2957 227.1632
		52.9375 136.4136 228.6394
		51.5147 136.4012 228.6394
		52.2286 136.5453 227.3286
		52.2297 136.5453 225.2039
		54.4355 141.8148 227.0818
		56.3512 140.5996 227.0818
		52.1840 142.2277 227.0818
		57.6396 138.7673 227.0818
		58.1061 136.5966 227.0818
		57.6776 134.4183 227.0818
		56.4214 132.5637 227.0818
		49.9399 141.7756 227.0818
		48.0457 140.5270 227.0818
		46.7894 138.6727 227.0818
		46.3608 136.4941 227.0818
		46.8273 134.3236 227.0818
		48.1158 132.4913 227.0818
		50.0315 131.2760 227.0818
		52.2831 130.8632 227.0818
		54.5271 131.3154 227.0818
		42.6560 148.2959 227.3619
		44.0787 148.3084 227.3619
		44.0791 148.2597 228.8193
		42.6564 148.2473 228.8193
		42.5785 157.1828 225.6700
		44.0011 157.1951 225.6700
		43.9884 158.6532 225.6700
		42.5657 158.6408 225.6700
		42.5816 156.8227 227.1632
		44.0043 156.8351 227.1632
		43.9966 157.7172 228.6394
		42.5739 157.7048 228.6394
		13.0646 148.0376 227.3619
		14.4867 148.0501 227.3619
		14.4872 148.0014 228.8193
		13.0650 147.9890 228.8193
		12.9870 156.9245 225.6700
		14.4091 156.9369 225.6700
		14.3964 158.3949 225.6700
		12.9743 158.3825 225.6700
		12.9902 156.5644 227.1632
		14.4123 156.5769 227.1632
		14.4046 157.4589 228.6394
		12.9825 157.4465 228.6394
		-75.9566 148.0984 108.8605
		-75.9000 141.6069 113.5647
		-75.6638 114.5516 113.5647
		-75.9566 148.0984 -41.1694
		-75.9000 141.6069 -46.5148
		-75.6638 114.5516 -46.5148
		56.7136 17.4014 219.0060
		56.8342 19.2633 218.9686
		56.7712 19.2891 220.9832
		56.6504 17.4272 221.0216
		60.1038 17.7529 186.5523
		60.3527 19.6156 186.5388
		63.9457 19.3803 176.5217
		63.6968 17.5175 176.5352
		63.1868 16.8748 218.5592
		63.4309 18.7371 218.6209
		63.4204 18.6498 220.6346
		63.1765 16.7874 220.5729
		65.6729 18.5277 220.0537
		65.3996 16.6700 219.9846
		64.4759 18.6473 218.3658
		64.2023 16.7894 218.2977
		66.7505 16.4396 218.0798
		66.9587 18.3070 218.1095
		64.9773 18.5544 217.8305
		64.7706 16.6870 217.8009
		68.4178 18.8394 194.4869
		68.2085 17.0909 194.4745
		70.1909 16.8433 194.7386
		70.4003 18.5919 194.7508
		70.3396 18.8877 192.8016
		70.1406 17.1042 192.8678
		68.1850 17.0921 193.6497
		68.3839 18.8741 193.5840
		69.6248 18.9876 191.5977
		69.4001 17.1847 191.6228
		67.7174 17.4192 192.8606
		67.8679 18.9598 192.7594
		-69.2764 1.8757 176.5068
		-61.7623 1.9413 175.0124
		-55.3921 1.9968 170.7558
		-51.1357 2.0340 164.3850
		-49.6411 2.0471 156.8708
		-51.1357 2.0340 149.3567
		-55.3921 1.9968 142.9856
		-61.7623 1.9413 138.7293
		-69.2764 1.8757 137.2347
		-76.7905 1.8101 138.7293
		-83.1606 1.7545 142.9856
		-87.4170 1.7174 149.3567
		-88.9117 1.7043 156.8708
		-87.4170 1.7174 164.3850
		-83.1606 1.7545 170.7558
		-76.7905 1.8101 175.0124
		-69.4729 24.3930 187.0802
		-57.9129 24.4939 184.7805
		-48.1125 24.5794 178.2318
		-41.5643 24.6366 168.4317
		-39.2648 24.6567 156.8708
		-41.5643 24.6366 145.3098
		-48.1125 24.5794 135.5099
		-57.9129 24.4939 128.9611
		-69.4729 24.3930 126.6616
		-81.0330 24.2921 128.9611
		-90.8332 24.2066 135.5099
		-97.3815 24.1495 145.3098
		-99.6809 24.1294 156.8708
		-97.3815 24.1495 168.4317
		-90.8332 24.2066 178.2318
		-81.0330 24.2921 184.7805
		-69.4733 24.3930 156.8708
		-69.2765 1.8757 156.8708
		-99.4872 1.9357 156.8708
		-97.1878 1.9557 145.3098
		-97.1878 1.9557 168.4317
		-90.6395 2.0128 135.5099
		-90.6395 2.0128 178.2318
		-80.8393 2.0984 128.9611
		-80.8393 2.0984 184.7805
		-69.2792 2.1993 126.6616
		-69.2792 2.1993 187.0802
		-57.7191 2.3002 184.7805
		-57.7191 2.3002 128.9611
		-47.9188 2.3857 178.2318
		-47.9188 2.3857 135.5099
		-41.3706 2.4428 145.3098
		-41.3706 2.4428 168.4317
		-39.0711 2.4629 156.8708
		-72.9753 1.8410 117.3828
		-73.3441 44.0885 117.3828
		-9.0513 44.6496 228.3682
		-8.7265 7.4235 220.9290
		-8.7046 4.9244 158.3530
		-8.7044 4.9080 122.9315
		64.9338 45.2952 183.3933
		61.6916 11.1617 183.3933
		63.7321 11.4698 158.3530
		64.0380 11.4724 122.9315
		66.3149 45.3074 158.3763
		66.4664 45.3086 122.9315
		-30.3686 -0.2956 122.9315
		-31.6016 -0.3064 158.3530
		5.4703 44.7763 226.5665
		5.7951 7.5501 219.7454
		5.8184 4.8910 158.3530
		5.8188 4.8385 122.9315
		-30.3686 -0.2956 134.8032
		-8.7046 4.9244 134.8032
		5.8186 4.8753 134.8032
		66.3974 45.3080 134.8032
		64.0380 11.4724 134.8032
		53.8939 45.1989 214.8539
		-73.0002 4.6992 194.3757
		52.0609 11.3518 211.0059
		-53.1577 2.4574 190.1541
		-8.6992 4.2956 183.3846
		5.8228 4.3898 183.3846
		-35.3071 0.4159 183.3846
		-72.9753 1.8410 120.2598
		-53.3701 26.7946 158.3530
		-53.3701 26.7946 125.6923
		-37.9480 26.9284 158.3530
		-38.2812 26.9259 134.4911
		-53.3701 26.7946 185.6361
		-40.6555 26.9052 180.2366
		-73.3441 44.0885 158.3530
		-73.1917 26.6227 190.6412
		-73.1917 26.6227 158.3530
		-73.1917 26.6227 121.6359
		-73.3441 44.0885 120.2598
		-73.3441 44.0885 194.3757
		-38.0484 0.2505 134.4911
		-72.9753 1.8410 121.6359
		-53.1457 1.0743 125.6923
		-40.4201 -0.0808 180.2366
		-72.9939 3.9640 190.6412
		-53.1423 0.6920 185.6361
		-37.7116 -0.1731 158.3530
		-73.3441 44.0885 211.0748
		-73.0258 7.6169 211.0748
		-8.7044 4.9080 212.4457
		5.8164 5.1154 211.3301
		31.4245 9.3300 215.7416
		31.1133 45.0001 221.7739
		49.7765 8.7436 206.5226
		57.1920 8.7759 183.3933
		59.4919 9.4525 158.3530
		59.7490 9.3782 134.8032
		59.7487 9.4163 122.9315
		31.4469 6.7698 209.0745
		31.4596 5.3136 183.3846
		31.4550 5.8312 158.3530
		31.4563 5.6904 134.8032
		31.4566 5.6482 122.9315
		-53.5226 44.2615 224.0524
		-53.2065 8.0414 216.6134
		-36.5772 4.6648 211.0748
		-36.9241 44.4063 225.9018
		-36.5992 7.1802 218.4632
		-53.1845 5.5260 211.0748
		-53.1457 1.0743 119.2323
		-53.1457 1.0743 123.8069
		-44.4628 44.3406 229.5136
		-77.8901 44.0488 224.5025
		-44.1644 10.1532 225.1940
		-77.6019 11.0257 220.1833
		-60.3164 3.0958 219.0601
		-60.3761 9.9398 225.1940
		-60.6751 44.1990 229.5136
		-44.1019 2.9897 219.0601
		-77.5505 5.1398 216.2411
		-60.3164 3.0958 207.7284
		-44.1019 2.9897 207.7284
		-44.4628 44.3406 207.7284
		-44.1638 10.0835 207.7284
		-77.5505 5.1398 207.7284
		-60.6751 44.1990 207.7284
		-77.8901 44.0488 207.7284
		-60.3798 10.3520 207.7284
		-77.5865 9.2682 207.7284
		59.4360 45.2472 122.9315
		31.1133 45.0001 122.9315
		5.4703 44.7763 122.9315
		-9.0513 44.6496 122.9315
		-30.7592 44.4601 122.9315
		-53.5226 44.2615 119.2323
		-64.8263 46.4261 101.1497
		-64.5194 11.2645 101.1497
		-64.5194 11.2645 43.3863
		-64.8263 46.4261 43.3863
		-28.3777 46.7442 101.1497
		-28.1204 17.2630 101.1497
		-28.1204 17.2630 43.3863
		-28.3777 46.7442 43.3863
		-34.1598 11.5294 101.1497
		-34.1598 11.5294 43.3863
		-34.4666 46.6911 101.1497
		-34.4666 46.6911 43.3863
		-58.3140 39.5122 3.6228
		-58.0771 12.3682 3.6228
		-58.0771 12.3682 -32.4961
		-58.3140 39.5122 -32.4961
		-32.7468 39.7354 3.6228
		-32.7468 39.7354 -32.4961
		-32.7303 39.7355 3.6228
		-32.7303 39.7355 -32.4961
		-32.4935 12.5916 -32.4961
		-32.4935 12.5916 3.6228
		-74.3222 7.1281 101.6760
		-74.3222 7.1281 105.1615
		-23.4345 47.5529 105.1615
		-23.4345 47.5529 101.6760
		-28.6970 7.5263 101.6760
		-28.6970 7.5263 105.1615
		-74.3222 7.1281 -38.7034
		-74.3222 7.1281 -35.0550
		-23.4345 47.5529 -35.0550
		-23.4345 47.5529 -38.7034
		-28.6970 7.5263 -38.7034
		-28.6970 7.5263 -35.0550
		26.0107 -8.5436 223.8895
		39.0281 -9.2249 223.8895
		52.0377 -8.3165 223.8895
		52.3731 -0.9687 223.8895
		51.9099 6.3340 223.8895
		38.8860 7.0533 223.8895
		25.8828 6.1069 223.8895
		25.5409 -1.2029 223.8895
		38.9571 -1.0858 223.8895
		26.6588 -7.8033 226.5752
		39.0259 -8.4111 227.0916
		51.3840 -7.5876 226.5752
		51.7060 -0.9745 227.0916
		51.2689 5.5977 226.5752
		38.8981 6.2395 227.0916
		26.5438 5.3819 226.5752
		26.2166 -1.1970 227.0916
		38.9620 -1.0858 227.6071
		4.7258 10.0473 219.3965
		4.7126 11.5674 221.2943
		2.8333 11.5511 221.2943
		2.8466 10.0309 219.3965
		7.8276 7.8564 226.2549
		7.8119 9.6535 226.8046
		6.0594 9.2542 227.8713
		6.0751 7.4573 227.3212
		8.3901 7.7046 226.5715
		8.3744 9.5014 227.1215
		7.6021 8.9723 229.0597
		7.6178 7.1754 228.5112
		9.3072 7.6639 226.8094
		9.2916 9.4609 227.3582
		9.2303 8.8493 229.2792
		9.2461 7.0523 228.7294
		57.4536 16.0819 202.8024
		57.4615 17.8741 203.3669
		58.6758 18.3454 201.6595
		58.6681 16.5531 201.0934
		-73.3441 44.0885 201.2599
		-73.0038 5.1015 201.2599
		-53.1647 3.2624 201.2599
		-36.5576 2.4175 201.2599
		-8.7044 4.9080 201.2599
		5.8167 5.0817 201.2599
		31.4490 6.5277 201.2599
		54.4348 8.9142 200.8900
		59.4774 11.5441 201.2932
		62.8365 45.2769 201.8725
		53.2198 8.8285 203.9578
		57.2130 11.4535 207.4261
		60.3474 45.2552 210.4013
		-25.6089 44.5051 227.2694
		-24.8118 7.2830 219.8611
		-24.2513 4.7723 211.4153
		-22.9877 4.7997 201.2599
		-20.6099 4.1917 183.3846
		-18.7761 4.8364 158.3530
		-18.7309 4.8369 122.9315
		-18.7461 4.8368 134.8032
		-19.0776 44.5621 122.9315
		-24.8694 0.0235 134.8032
		-24.8676 -0.1755 122.9315
		-25.2576 44.5081 122.9315
		-25.4752 -0.1318 158.3530
		-26.4064 1.6337 183.3846
		-27.9089 2.9002 201.2599
		-28.4360 4.7358 211.2015
		-28.8138 7.2481 219.6453
		-29.3108 44.4728 227.0224
		49.6625 7.9746 122.9315
		49.3380 45.1592 122.9315
		49.6626 7.9616 134.8032
		49.6617 8.0793 158.3530
		49.6653 7.6665 183.3907
		49.6598 8.2839 200.9479
		74.3034 10.3289 153.9719
		74.2741 13.6833 153.9904
		74.2741 13.6833 134.8956
		74.3034 10.3289 134.8956
		71.2433 7.7414 153.9719
		71.2433 7.7414 134.8956
		28.4234 -0.0307 153.9719
		28.4234 -0.0307 134.8956
		-16.9374 6.0857 153.9719
		-16.9075 6.0859 134.8956
		51.5532 3.2537 134.8956
		51.5532 3.2537 153.9719
		-16.8483 -0.6770 153.9719
		-16.8483 -0.6771 134.8956
		58.0958 45.2356 225.0634
		56.5473 17.1148 222.4374
		58.5631 45.2396 212.5532
		57.0508 16.3602 210.1006
		51.2466 12.5389 209.6024
		55.6495 13.4215 208.0775
		54.9315 14.0569 219.6542
		51.8616 13.1414 213.9641
		-39.0199 40.4909 113.5647
		-38.7839 13.4355 113.5647
		-38.7272 6.9440 108.8605
		-38.7272 6.9440 -41.1694
		-38.7839 13.4355 -46.5148
		-39.0199 40.4909 -46.5148
		-23.6685 12.8398 105.1615
		-23.6685 12.8398 101.6760
		-23.7536 13.4556 -35.0550
		-23.7536 13.4556 -38.7034
		-74.3222 7.1281 29.1133
		-74.3222 7.1281 32.7617
		-23.4345 47.5529 32.7617
		-23.4345 47.5529 29.1133
		-28.6970 7.5263 29.1133
		-28.6970 7.5263 32.7617
		-23.7536 13.4556 32.7617
		-23.7536 13.4556 29.1133
		-31.8981 2.8708 -127.7867
		-31.8981 2.8708 -73.9036
		-40.9729 2.7916 -63.9536
		-32.2432 42.4148 -127.7867
		-32.2432 42.4148 -73.9036
		-41.3179 42.3356 -63.9536
		-40.9729 2.7916 -49.8032
		-41.3179 42.3356 -49.8032
		-21.4669 42.5089 -68.7990
		-21.4669 42.5089 -127.7867
		-21.1219 2.9649 -127.7867
		-21.1219 2.9649 -68.7990
		-31.8981 2.8708 -178.2670
		-40.9729 2.7916 -189.3518
		-32.2432 42.4148 -178.2670
		-41.3179 42.3356 -189.3518
		-40.9729 2.7916 -204.6364
		-41.3179 42.3356 -204.6364
		-21.4669 42.5089 -183.3717
		-21.1219 2.9649 -183.3717
		-69.2764 1.8757 -69.6061
		-61.7623 1.9413 -71.1008
		-55.3921 1.9968 -75.3574
		-51.1357 2.0340 -81.7278
		-49.6411 2.0471 -89.2421
		-51.1357 2.0340 -96.7564
		-55.3921 1.9968 -103.1269
		-61.7623 1.9413 -107.3834
		-69.2764 1.8757 -108.8781
		-76.7905 1.8101 -107.3834
		-83.1606 1.7545 -103.1269
		-87.4170 1.7174 -96.7564
		-88.9117 1.7043 -89.2421
		-87.4170 1.7174 -81.7278
		-83.1606 1.7545 -75.3574
		-76.7905 1.8101 -71.1008
		-69.6182 41.0383 -59.0329
		-58.0581 41.1392 -61.3325
		-48.2578 41.2247 -67.8810
		-41.7095 41.2819 -77.6815
		-39.4100 41.3019 -89.2421
		-41.7095 41.2819 -100.8027
		-48.2578 41.2247 -110.6033
		-58.0581 41.1392 -117.1518
		-69.6182 41.0383 -119.4514
		-81.1783 40.9374 -117.1518
		-90.9784 40.8519 -110.6033
		-97.5267 40.7947 -100.8027
		-99.8262 40.7747 -89.2421
		-97.5267 40.7947 -77.6815
		-90.9784 40.8519 -67.8810
		-81.1783 40.9374 -61.3325
		-69.6185 41.0383 -89.2421
		-69.2765 1.8757 -89.2421
		-99.4872 1.9357 -89.2421
		-97.1878 1.9557 -100.8027
		-97.1878 1.9557 -77.6815
		-90.6395 2.0128 -110.6033
		-90.6395 2.0128 -67.8810
		-80.8393 2.0984 -117.1518
		-80.8393 2.0984 -61.3325
		-69.2792 2.1993 -119.4514
		-69.2792 2.1993 -59.0329
		-57.7191 2.3002 -61.3325
		-57.7191 2.3002 -117.1518
		-47.9188 2.3857 -67.8810
		-47.9188 2.3857 -110.6033
		-41.3706 2.4428 -100.8027
		-41.3706 2.4428 -77.6815
		-39.0711 2.4629 -89.2421
		-69.2764 1.8757 -144.3277
		-61.7623 1.9413 -145.8221
		-55.3921 1.9968 -150.0784
		-51.1357 2.0340 -156.4497
		-49.6411 2.0471 -163.9639
		-51.1357 2.0340 -171.4778
		-55.3921 1.9968 -177.8488
		-61.7623 1.9413 -182.1052
		-69.2764 1.8757 -183.5999
		-76.7905 1.8101 -182.1052
		-83.1606 1.7545 -177.8488
		-87.4170 1.7174 -171.4778
		-88.9117 1.7043 -163.9639
		-87.4170 1.7174 -156.4497
		-83.1606 1.7545 -150.0784
		-76.7905 1.8101 -145.8221
		-69.6182 41.0383 -133.7546
		-58.0581 41.1392 -136.0541
		-48.2578 41.2247 -142.6027
		-41.7095 41.2819 -152.4029
		-39.4100 41.3019 -163.9639
		-41.7095 41.2819 -175.5247
		-48.2578 41.2247 -185.3247
		-58.0581 41.1392 -191.8734
		-69.6182 41.0383 -194.1729
		-81.1783 40.9374 -191.8734
		-90.9784 40.8519 -185.3247
		-97.5267 40.7947 -175.5247
		-99.8262 40.7747 -163.9639
		-97.5267 40.7947 -152.4029
		-90.9784 40.8519 -142.6027
		-81.1783 40.9374 -136.0541
		-69.6185 41.0383 -163.9639
		-69.2765 1.8757 -163.9639
		-99.4872 1.9357 -163.9639
		-97.1878 1.9557 -175.5247
		-97.1878 1.9557 -152.4029
		-90.6395 2.0128 -185.3247
		-90.6395 2.0128 -142.6027
		-80.8393 2.0984 -191.8734
		-80.8393 2.0984 -136.0541
		-69.2792 2.1993 -194.1729
		-69.2792 2.1993 -133.7546
		-57.7191 2.3002 -136.0541
		-57.7191 2.3002 -191.8734
		-47.9188 2.3857 -142.6027
		-47.9188 2.3857 -185.3247
		-41.3706 2.4428 -175.5247
		-41.3706 2.4428 -152.4029
		-39.0711 2.4629 -163.9639
		99.9237 -2.1639 87.2046
		79.3464 -2.3435 87.2046
		-3.9541 -3.0704 87.2046
		-14.1679 8.2728 87.2046
		19.7798 -2.8634 87.2046
		-20.0119 42.0878 87.2046
		19.3845 42.4315 -255.9155
		-4.2754 42.2251 105.2708
		-4.2754 42.2251 -266.5540
		-3.0828 4.4819 -256.0940
		-3.0828 4.4819 103.3425
		19.3845 42.4315 105.2708
		19.7798 -2.8634 105.2708
		-20.0119 42.0878 105.2708
		-14.1679 8.2728 105.2708
		-3.9541 -3.0704 105.2708
		18.2945 1.7989 90.0152
		45.7097 8.3382 90.0152
		45.7097 8.3382 -248.4479
		18.2945 1.7989 -248.4479
		-4.5367 3.7222 102.2540
		81.9367 4.4768 119.3867
		78.9510 42.9513 124.3827
		79.3464 -2.3435 124.3827
		79.3464 -2.3435 105.2708
		78.9510 42.9513 105.2708
		99.9237 -2.1639 124.3827
		99.8581 5.3771 119.3867
		99.9237 -2.1639 105.4834
		81.9367 4.4768 102.2540
		99.5284 43.1310 124.3827
		99.5284 43.1310 119.3867
		19.3845 42.4315 -266.5540
		-20.0119 42.0878 -266.5540
		-14.1679 8.2728 -266.5540
		-3.9541 -3.0704 -266.5540
		19.7798 -2.8634 -266.5540
		19.7140 4.6809 -255.9155
		-3.3294 4.4798 -256.1816
		-3.3294 4.4798 102.5941
		19.7140 4.6809 -256.1816
		80.7602 5.2136 119.8799
		99.8581 5.3771 119.8799
		80.7602 5.2111 102.5941
		-3.1412 4.1115 -256.0076
		19.7172 4.3110 -256.0076
		81.8135 4.4758 119.3867
		99.8765 4.6334 119.3874
		99.8581 5.3771 87.2046
		79.2806 5.2007 87.2046
		99.8581 5.3771 102.5941
		19.7140 4.6809 87.2046
		-25.4451 -4.6538 106.9332
		-25.4451 -4.6538 120.4963
		90.3909 3.7554 120.4963
		90.3909 3.7554 106.9332
		87.9893 -3.6640 106.9332
		87.9893 -3.6640 120.4963
		-69.6766 42.0881 -206.6264
		-69.3316 2.5442 -206.6264
		-54.2087 2.6761 -205.0949
		-54.5538 42.2201 -205.0949
		-60.3839 46.9218 -254.8257
		-46.1804 47.0457 -241.6855
		-30.5832 47.1818 -215.1062
		-30.6376 53.4207 -215.1062
		-46.2349 53.2846 -241.6855
		-60.4383 53.1607 -254.8257
		-68.7816 46.8485 -254.8208
		-55.2552 46.9665 -226.4785
		-46.4640 47.0432 -215.1013
		-46.5184 53.2822 -215.1013
		-55.3096 53.2054 -226.4785
		-68.8361 53.0874 -254.8208
		-49.5500 53.4569 -212.8703
		-35.1767 53.5823 -212.8703
		-58.6248 53.3777 -214.5674
		-35.1767 53.5823 -214.5674
		-71.0331 2.5293 -263.9131
		-71.0331 2.5293 -254.8381
		-11.8368 48.5933 -249.8160
		-21.1482 48.5121 -237.8913
		-23.2208 48.4940 -213.9716
		-23.2753 54.7329 -213.9716
		-21.2026 54.7509 -237.8913
		-11.8913 54.8322 -249.8160
		-11.8384 48.5933 -259.8330
		-27.8273 48.4538 -241.3600
		-30.5941 48.4296 -213.9668
		-30.6485 54.6685 -213.9668
		-27.8817 54.6927 -241.3600
		-11.8928 54.8322 -259.8330
		-50.6517 6.9251 -214.6808
		-6.8314 7.3074 -214.6808
		-50.9512 41.2516 -214.6808
		-7.1310 41.6341 -214.6808
		-56.3359 2.6575 -254.8381
		-56.3359 2.6575 -263.9131
		19.3180 2.8003 -257.7499
		70.5025 4.2718 102.6548
		147.0431 -1.8024 56.0383
		190.3363 -2.6904 19.1096
		10.6329 43.1466 -257.7499
		23.9087 42.6905 101.8455
		57.3397 41.1651 64.0592
		68.6532 33.6746 19.3170
		140.4913 -5.5897 -56.1468
		64.9469 33.3426 -56.5106
		142.2504 -7.7887 -129.7965
		57.7820 39.0878 -131.4314
		109.1380 -4.2229 -230.6576
		39.0431 42.1744 -203.6001
		-34.3024 40.4731 -250.4532
		-34.0482 11.3391 -250.4532
		-34.3024 40.4731 -254.1834
		-34.0482 11.3391 -254.1834
		-13.8425 32.2185 -250.4532
		-13.7361 20.0259 -250.4532
		-13.8425 32.2185 -254.1834
		-13.7361 20.0259 -254.1834
		-18.9182 40.6074 -250.4532
		-18.6640 11.4733 -250.4532
		-18.9182 40.6074 -254.1834
		-18.6640 11.4733 -254.1834
		54.3466 8.1468 226.7835
		54.3313 9.9124 227.4272
		54.3375 9.2017 229.3124
		54.3529 7.4359 228.6700
		58.2418 9.4407 228.3816
		58.2263 7.6777 227.7315
		57.1389 10.0540 226.8094
		57.1247 8.2910 226.1600
		60.6855 9.0405 223.9622
		60.6329 10.8158 224.5753
		58.6373 10.8747 224.3064
		58.6886 9.0992 223.6919
		60.8183 16.5796 207.1846
		60.8524 14.9103 206.6247
		62.8506 14.8562 206.8798
		62.8162 16.5256 207.4397
		62.6254 17.1925 205.4779
		62.6739 15.4673 204.9812
		60.7045 15.1865 205.7174
		60.6563 16.9103 206.2131
		61.6995 17.6067 204.1131
		61.7086 15.8707 203.5768
		60.1500 15.4536 204.9244
		60.1940 17.1686 205.4979
		-53.2966 18.3687 218.7345
		-36.6981 18.5136 220.7281
		-53.2966 18.3687 119.2323
		-30.5333 18.5674 122.9315
		-25.0544 18.6152 222.1163
		-28.9651 18.5811 221.8920
		-25.0316 18.6154 122.9315
		-8.8253 18.7568 223.1940
		-8.8253 18.7568 122.9315
		-18.8517 18.6694 122.9315
		5.6963 18.8836 221.8218
		5.6963 18.8836 122.9315
		31.3392 19.1074 217.3953
		31.3392 19.1074 122.9315
		49.5640 19.2664 122.9315
		52.4910 19.2919 211.9085
		58.4167 19.3436 208.7371
		64.1340 19.3935 183.3933
		65.5705 19.4061 158.3589
		65.8231 19.4083 134.8032
		65.8391 19.4085 122.9315
		59.6620 19.3545 122.9315
		62.1045 19.3758 201.4276
		65.0221 17.6712 189.1957
		65.1667 19.4467 189.0553
		66.5929 17.4146 187.8236
		66.7407 19.2661 187.6807
		61.7132 17.7262 187.4178
		61.7479 19.5665 187.2675
		65.7550 17.4922 178.2601
		65.7978 19.3536 178.0811
		8.9892 -7.7567 223.8895
		14.3101 -8.4257 223.8895
		19.6209 -7.6640 223.8895
		19.7266 -1.0526 223.8895
		19.5058 5.5217 223.8895
		14.1823 6.2249 223.8895
		8.8741 5.4289 223.8895
		8.7660 -1.1482 223.8895
		14.2463 -1.1005 223.8895
		9.2509 -7.0934 226.5752
		14.3056 -7.6932 227.0916
		19.3510 -7.0051 226.5752
		19.4544 -1.0550 227.0916
		19.2475 4.8617 226.5752
		14.1906 5.4923 227.0916
		9.1473 4.7736 226.5752
		9.0416 -1.1459 227.0916
		14.2480 -1.1004 227.6071
		52.6271 8.9218 227.3619
		54.0500 8.9343 227.3619
		54.0503 8.8856 228.8193
		52.6275 8.8732 228.8193
		52.5303 20.0280 226.6566
		53.9531 20.0404 226.6566
		53.9402 21.4986 226.6566
		52.5175 21.4862 226.6566
		52.5334 19.6679 227.1632
		53.9561 19.6803 227.1632
		53.9484 20.5625 228.6394
		52.5256 20.5500 228.6394
		53.2419 20.4184 227.3286
		53.2431 20.4184 225.2039
		55.5405 15.1882 227.0818
		57.4347 16.4367 227.0818
		53.2966 14.7361 227.0818
		58.6911 18.2912 227.0818
		59.1195 20.4697 227.0818
		58.6531 22.6402 227.0818
		57.3647 24.4725 227.0818
		51.0450 15.1490 227.0818
		49.1293 16.3643 227.0818
		47.8407 18.1966 227.0818
		47.3743 20.3671 227.0818
		47.8029 22.5454 227.0818
		49.0592 24.4001 227.0818
		50.9534 25.6484 227.0818
		53.1974 26.1005 227.0818
		55.4489 25.6877 227.0818
		43.8760 8.5026 227.3619
		45.2987 8.5149 227.3619
		45.2982 8.5636 228.8193
		43.8756 8.5512 228.8193
		43.9535 -0.3843 225.6700
		45.3762 -0.3718 225.6700
		45.3890 -1.8299 225.6700
		43.9663 -1.8424 225.6700
		43.9505 -0.0243 227.1632
		45.3731 -0.0119 227.1632
		45.3809 -0.8939 228.6394
		43.9581 -0.9063 228.6394
		14.2846 8.2443 227.3619
		15.7067 8.2567 227.3619
		15.7062 8.3054 228.8193
		14.2841 8.2929 228.8193
		14.3621 -0.6425 225.6700
		15.7843 -0.6301 225.6700
		15.7969 -2.0882 225.6700
		14.3748 -2.1006 225.6700
		14.3589 -0.2825 227.1632
		15.7810 -0.2701 227.1632
		15.7888 -1.1521 228.6394
		14.3667 -1.1646 228.6394
		-74.7220 6.6299 108.8605
		-74.7787 13.1214 113.5647
		-75.0148 40.1768 113.5647
		-74.7220 6.6299 -41.1694
		-74.7787 13.1214 -46.5148
		-75.0148 40.1768 -46.5148
		-8.9701 108.9389 125.0110
		-8.6996 77.9457 125.0110
		-8.6996 77.9457 102.4984
		-34.2527 77.7227 -215.1345
		-62.5089 108.4717 102.4938
		-62.2384 77.4785 102.4938
		-34.5235 108.7159 125.0110
		-62.2384 77.4785 -215.1345
		-62.5089 108.4717 -215.1345
		-8.9701 108.9389 -215.1345
		-8.6996 77.9457 -215.1345
		-34.5235 108.7159 -215.1345
		-8.9701 108.9389 102.4938
		-34.5235 108.7159 102.4938
		-8.4292 46.9525 125.0110
		-61.9679 46.4853 102.4938
		-33.9825 46.7295 125.0110
		-61.9679 46.4853 -215.1345
		-8.4292 46.9525 -215.1345
		-33.9825 46.7295 -215.1345
		-8.4292 46.9525 102.4938
		-33.9825 46.7295 102.4938
		-73.6058 108.3749 125.0110
		-73.3353 77.3816 125.0110
		-73.0648 46.3884 125.0110
	}
	face 1212 {
		4 V(1 9 8 0) M(3)
		4 V(9 1 2 10) M(3)
		4 V(3 11 10 2) M(3)
		4 V(0 8 11 3) M(3)
		4 V(13 12 10 11) M(3)
		4 V(9 14 15 8) M(3)
		4 V(10 12 14 9) M(3)
		4 V(15 13 11 8) M(3)
		4 V(13 16 17 12) M(3)
		4 V(12 17 18 14) M(3)
		4 V(14 18 19 15) M(3)
		4 V(15 19 16 13) M(3)
		4 V(21 19 18 20) M(3)
		4 V(20 27 26 21) M(3)
		4 V(17 16 22 23) M(3)
		4 V(20 18 17 23) M(3)
		4 V(16 19 21 22) M(3)
		4 V(27 31 30 26) M(3)
		4 V(24 23 22 25) M(3)
		4 V(27 20 23 24) M(3)
		4 V(25 22 21 26) M(3)
		4 V(28 24 25 29) M(3)
		4 V(31 27 24 28) M(3)
		4 V(29 25 26 30) M(3)
		4 V(47 46 65 32) M(1)
		4 V(49 50 64 48) M(3)
		4 V(65 38 37 36) M(1)
		4 V(64 58 59 60) M(3)
		4 V(65 34 33 32) M(1)
		4 V(64 62 63 48) M(3)
		4 V(65 42 41 40) M(1)
		4 V(64 54 55 56) M(3)
		4 V(50 51 52 64) M(3)
		4 V(64 56 57 58) M(3)
		4 V(65 36 35 34) M(1)
		4 V(65 44 43 42) M(1)
		4 V(46 45 44 65) M(1)
		4 V(65 40 39 38) M(1)
		4 V(64 60 61 62) M(3)
		4 V(64 52 53 54) M(3)
		4 V(44 66 67 43) M(3)
		4 V(59 67 66 60) M(3)
		4 V(68 66 44 45) M(3)
		4 V(60 66 68 61) M(3)
		4 V(43 67 69 42) M(3)
		4 V(58 69 67 59) M(3)
		4 V(70 68 45 46) M(3)
		4 V(61 68 70 62) M(3)
		4 V(42 69 71 41) M(3)
		4 V(57 71 69 58) M(3)
		4 V(72 70 46 47) M(3)
		4 V(62 70 72 63) M(3)
		4 V(41 71 73 40) M(3)
		4 V(56 73 71 57) M(3)
		4 V(74 72 47 32) M(3)
		4 V(63 72 74 48) M(3)
		4 V(75 74 32 33) M(3)
		4 V(48 74 75 49) M(3)
		4 V(40 73 76 39) M(3)
		4 V(55 76 73 56) M(3)
		4 V(77 75 33 34) M(3)
		4 V(49 75 77 50) M(3)
		4 V(39 76 78 38) M(3)
		4 V(54 78 76 55) M(3)
		4 V(38 78 79 37) M(3)
		4 V(53 79 78 54) M(3)
		4 V(80 77 34 35) M(3)
		4 V(50 77 80 51) M(3)
		4 V(81 80 35 36) M(3)
		4 V(51 80 81 52) M(3)
		4 V(37 79 81 36) M(3)
		4 V(52 81 79 53) M(3)
		4 V(92 134 130 83) M(0)
		4 V(99 103 87 85) M(9)
		4 V(103 114 89 87) M(9)
		4 V(88 84 95 107) M(10)
		4 V(115 154 155 102) M(9)
		4 V(112 113 109 97) M(9)
		4 V(111 170 169 105) M(0)
		4 V(135 130 132 131) M(0)
		4 V(133 134 123 137) M(0)
		4 V(137 123 170 138) M(0)
		4 V(114 104 86 89) M(9)
		4 V(159 158 109 113) M(2)
		4 V(112 98 110 113) M(9)
		4 V(111 106 142 136) M(0)
		4 V(122 139 142 106) M(0)
		4 V(117 135 131 140) M(0)
		4 V(119 117 140 141) M(0)
		4 V(122 119 141 139) M(0)
		4 V(121 120 97 109) M(9)
		4 V(158 157 121 109) M(2)
		4 V(111 136 138 170) M(0)
		4 V(92 82 94 134) M(0)
		4 V(134 94 93 123) M(0)
		4 V(123 93 169 170) M(0)
		4 V(137 138 125 133) M(0)
		4 V(138 136 127 125) M(0)
		4 V(136 142 126 127) M(0)
		4 V(126 142 139 129) M(0)
		4 V(129 139 141 128) M(0)
		4 V(128 141 140 131) M(0)
		4 V(133 125 124 132) M(0)
		4 V(127 126 124 125) M(0)
		4 V(129 128 124 126) M(0)
		4 V(131 132 124 128) M(0)
		4 V(134 133 132 130) M(0)
		4 V(135 91 83 130) M(0)
		4 V(147 108 96 146) M(10)
		4 V(156 148 108 147) M(9)
		4 V(90 150 149 116) M(2)
		4 V(107 149 150 88) M(2)
		4 V(159 113 110 160) M(9)
		4 V(156 151 118 148) M(9)
		4 V(154 115 101 153) M(9)
		4 V(153 101 100 152) M(9)
		4 V(165 167 161 162) M(10)
		4 V(168 164 166 163) M(10)
		4 V(192 175 171 191) M(0)
		4 V(174 176 187 186) M(10)
		4 V(176 179 178 181) M(10)
		4 V(182 178 179 177) M(10)
		4 V(172 173 180 174) M(10)
		4 V(175 180 173 171) M(10)
		4 V(174 180 179 176) M(10)
		4 V(175 177 179 180) M(10)
		4 V(194 177 175 192) M(0)
		4 V(182 188 183 178) M(10)
		4 V(178 183 184 181) M(10)
		4 V(172 174 186 185) M(10)
		4 V(177 194 188 182) M(0)
		4 V(176 181 184 187) M(10)
		4 V(184 183 193 187) M(10)
		4 V(188 194 193 183) M(10)
		4 V(194 192 190 193) M(10)
		4 V(192 191 189 190) M(10)
		4 V(199 206 94 82) M(0)
		4 V(206 169 93 94) M(0)
		4 V(203 196 195 202) M(9)
		4 V(204 197 196 203) M(9)
		4 V(206 199 198 205) M(0)
		4 V(201 200 86 104) M(9)
		4 V(210 209 208 207) M(8)
		4 V(213 214 211 212) M(8)
		4 V(212 215 216 213) M(8)
		4 V(209 216 215 208) M(8)
		4 V(211 217 215 212) M(8)
		4 V(208 215 217 207) M(8)
		4 V(216 218 214 213) M(8)
		4 V(210 218 216 209) M(8)
		4 V(222 221 220 219) M(8)
		4 V(227 224 223 228) M(8)
		4 V(221 227 228 220) M(8)
		4 V(220 228 225 219) M(8)
		4 V(222 226 227 221) M(8)
		4 V(233 234 230 229) M(8)
		4 V(239 240 236 235) M(8)
		4 V(248 249 242 241) M(13)
		4 V(247 246 249 248) M(13)
		4 V(249 244 243 242) M(13)
		4 V(246 245 244 249) M(13)
		4 V(242 251 250 241) M(3)
		4 V(243 252 251 242) M(3)
		4 V(244 253 252 243) M(3)
		4 V(245 254 253 244) M(3)
		4 V(255 254 245 246) M(3)
		4 V(256 255 246 247) M(3)
		4 V(257 256 247 248) M(3)
		4 V(250 257 248 241) M(3)
		4 V(251 258 257 250) M(3)
		4 V(258 255 256 257) M(3)
		4 V(252 253 258 251) M(3)
		4 V(253 254 255 258) M(3)
		4 V(260 264 263 259) M(3)
		4 V(261 265 264 260) M(3)
		4 V(266 265 261 262) M(3)
		4 V(263 266 262 259) M(3)
		4 V(264 268 267 263) M(3)
		4 V(265 269 268 264) M(3)
		4 V(270 269 265 266) M(3)
		4 V(267 270 266 263) M(3)
		4 V(268 272 271 267) M(3)
		4 V(269 273 272 268) M(3)
		4 V(274 273 269 270) M(3)
		4 V(271 274 270 267) M(3)
		4 V(143 279 280 144) M(0)
		4 V(135 280 279 91) M(0)
		4 V(280 281 145 144) M(0)
		4 V(135 117 281 280) M(0)
		4 V(281 117 119 282) M(9)
		4 V(145 281 282 168) M(9)
		4 V(282 119 122 283) M(9)
		4 V(168 282 283 164) M(9)
		4 V(285 147 146 284) M(9)
		4 V(121 285 284 120) M(9)
		4 V(286 156 147 285) M(2)
		4 V(157 286 285 121) M(2)
		4 V(100 288 287 152) M(9)
		4 V(85 290 289 99) M(9)
		4 V(151 291 292 118) M(9)
		4 V(291 287 288 292) M(9)
		4 V(293 289 290 294) M(9)
		4 V(116 293 294 90) M(9)
		4 V(296 315 314 295) M(10)
		4 V(295 95 84 296) M(10)
		4 V(297 313 312 298) M(10)
		4 V(298 146 96 297) M(10)
		4 V(298 299 284 146) M(9)
		4 V(298 312 311 299) M(9)
		4 V(299 300 120 284) M(9)
		4 V(122 310 311 283) M(9)
		4 V(106 309 310 122) M(9)
		4 V(301 97 120 300) M(9)
		4 V(303 306 307 302) M(9)
		4 V(302 98 112 303) M(9)
		4 V(301 303 112 97) M(9)
		4 V(301 309 306 303) M(9)
		4 V(316 308 205 198) M(9)
		4 V(204 304 305 197) M(9)
		4 V(315 167 165 314) M(10)
		4 V(313 166 164 312) M(10)
		4 V(312 164 283 311) M(9)
		4 V(310 300 299 311) M(9)
		4 V(309 301 300 310) M(9)
		4 V(306 111 105 307) M(9)
		4 V(309 106 111 306) M(9)
		4 V(316 305 304 308) M(9)
		4 V(202 195 319 318) M(9)
		4 V(201 318 319 200) M(9)
		4 V(160 317 320 159) M(9)
		4 V(154 320 317 155) M(9)
		4 V(153 321 320 154) M(9)
		4 V(159 320 321 158) M(2)
		4 V(152 322 321 153) M(9)
		4 V(157 158 321 322) M(2)
		4 V(157 322 323 286) M(2)
		4 V(152 287 323 322) M(9)
		4 V(323 151 156 286) M(2)
		4 V(323 287 291 151) M(9)
		4 V(325 327 328 324) M(10)
		4 V(326 329 327 325) M(10)
		4 V(326 332 331 329) M(10)
		4 V(332 333 330 331) M(10)
		4 V(339 338 749 750) M(8)
		4 V(338 337 748 749) M(8)
		4 V(337 336 745 748) M(8)
		4 V(336 335 746 745) M(8)
		4 V(335 334 747 746) M(8)
		4 V(341 340 234 233) M(8)
		4 V(232 231 340 341) M(8)
		4 V(343 342 240 239) M(8)
		4 V(342 343 238 237) M(8)
		4 V(348 349 345 344) M(8)
		4 V(351 350 349 348) M(8)
		4 V(350 351 347 346) M(8)
		4 V(362 363 353 352) M(9)
		4 V(363 358 354 353) M(9)
		4 V(360 359 358 363) M(9)
		4 V(361 360 363 362) M(9)
		4 V(356 360 361 355) M(9)
		4 V(357 359 360 356) M(9)
		4 V(364 371 362 352) M(9)
		4 V(365 368 371 364) M(9)
		4 V(368 369 370 371) M(9)
		4 V(371 370 361 362) M(9)
		4 V(361 370 366 355) M(9)
		4 V(370 369 367 366) M(9)
		4 V(387 386 405 372) M(1)
		4 V(389 390 404 388) M(3)
		4 V(405 378 377 376) M(1)
		4 V(404 398 399 400) M(3)
		4 V(405 374 373 372) M(1)
		4 V(404 402 403 388) M(3)
		4 V(405 382 381 380) M(1)
		4 V(404 394 395 396) M(3)
		4 V(390 391 392 404) M(3)
		4 V(404 396 397 398) M(3)
		4 V(405 376 375 374) M(1)
		4 V(405 384 383 382) M(1)
		4 V(386 385 384 405) M(1)
		4 V(405 380 379 378) M(1)
		4 V(404 400 401 402) M(3)
		4 V(404 392 393 394) M(3)
		4 V(384 406 407 383) M(3)
		4 V(399 407 406 400) M(3)
		4 V(408 406 384 385) M(3)
		4 V(400 406 408 401) M(3)
		4 V(383 407 409 382) M(3)
		4 V(398 409 407 399) M(3)
		4 V(410 408 385 386) M(3)
		4 V(401 408 410 402) M(3)
		4 V(382 409 411 381) M(3)
		4 V(397 411 409 398) M(3)
		4 V(412 410 386 387) M(3)
		4 V(402 410 412 403) M(3)
		4 V(381 411 413 380) M(3)
		4 V(396 413 411 397) M(3)
		4 V(414 412 387 372) M(3)
		4 V(403 412 414 388) M(3)
		4 V(415 414 372 373) M(3)
		4 V(388 414 415 389) M(3)
		4 V(380 413 416 379) M(3)
		4 V(395 416 413 396) M(3)
		4 V(417 415 373 374) M(3)
		4 V(389 415 417 390) M(3)
		4 V(379 416 418 378) M(3)
		4 V(394 418 416 395) M(3)
		4 V(378 418 419 377) M(3)
		4 V(393 419 418 394) M(3)
		4 V(420 417 374 375) M(3)
		4 V(390 417 420 391) M(3)
		4 V(421 420 375 376) M(3)
		4 V(391 420 421 392) M(3)
		4 V(377 419 421 376) M(3)
		4 V(392 421 419 393) M(3)
		4 V(437 436 455 422) M(1)
		4 V(439 440 454 438) M(3)
		4 V(455 428 427 426) M(1)
		4 V(454 448 449 450) M(3)
		4 V(455 424 423 422) M(1)
		4 V(454 452 453 438) M(3)
		4 V(455 432 431 430) M(1)
		4 V(454 444 445 446) M(3)
		4 V(440 441 442 454) M(3)
		4 V(454 446 447 448) M(3)
		4 V(455 426 425 424) M(1)
		4 V(455 434 433 432) M(1)
		4 V(436 435 434 455) M(1)
		4 V(455 430 429 428) M(1)
		4 V(454 450 451 452) M(3)
		4 V(454 442 443 444) M(3)
		4 V(434 456 457 433) M(3)
		4 V(449 457 456 450) M(3)
		4 V(458 456 434 435) M(3)
		4 V(450 456 458 451) M(3)
		4 V(433 457 459 432) M(3)
		4 V(448 459 457 449) M(3)
		4 V(460 458 435 436) M(3)
		4 V(451 458 460 452) M(3)
		4 V(432 459 461 431) M(3)
		4 V(447 461 459 448) M(3)
		4 V(462 460 436 437) M(3)
		4 V(452 460 462 453) M(3)
		4 V(431 461 463 430) M(3)
		4 V(446 463 461 447) M(3)
		4 V(464 462 437 422) M(3)
		4 V(453 462 464 438) M(3)
		4 V(465 464 422 423) M(3)
		4 V(438 464 465 439) M(3)
		4 V(430 463 466 429) M(3)
		4 V(445 466 463 446) M(3)
		4 V(467 465 423 424) M(3)
		4 V(439 465 467 440) M(3)
		4 V(429 466 468 428) M(3)
		4 V(444 468 466 445) M(3)
		4 V(428 468 469 427) M(3)
		4 V(443 469 468 444) M(3)
		4 V(470 467 424 425) M(3)
		4 V(440 467 470 441) M(3)
		4 V(471 470 425 426) M(3)
		4 V(441 470 471 442) M(3)
		4 V(427 469 471 426) M(3)
		4 V(442 471 469 443) M(3)
		4 V(510 509 505 506) M(9)
		4 V(508 507 505 509) M(9)
		4 V(526 544 479 523) M(9)
		4 V(513 543 512 511) M(9)
		4 V(474 542 541 473) M(9)
		4 V(542 474 479 544) M(9)
		4 V(474 508 492 479) M(9)
		4 V(513 511 507 508) M(9)
		4 V(492 496 476 479) M(9)
		4 V(477 476 496 495) M(9)
		4 V(476 521 523 479) M(9)
		4 V(520 521 476 477) M(9)
		4 V(495 493 480 477) M(9)
		4 V(472 480 493 494) M(9)
		4 V(477 480 519 520) M(9)
		4 V(522 519 480 472) M(9)
		4 V(518 481 526 523) M(9)
		4 V(525 481 518 524) M(9)
		4 V(491 490 509 510) M(9)
		4 V(508 509 490 492) M(9)
		4 V(475 516 517 478) M(9)
		4 V(505 516 475 506) M(9)
		4 V(511 516 505 507) M(9)
		4 V(482 496 492 490) M(9)
		4 V(523 521 483 518) M(9)
		4 V(482 484 494 493) M(9)
		4 V(491 484 482 490) M(9)
		4 V(483 485 524 518) M(9)
		4 V(522 485 483 519) M(9)
		4 V(482 493 495 496) M(9)
		4 V(521 520 519 483) M(9)
		4 V(489 488 487 486) M(9)
		4 V(499 498 497 500) M(4)
		4 V(514 501 502 515) M(9)
		4 V(504 514 515 503) M(9)
		4 V(512 517 516 511) M(9)
		4 V(508 474 473 513) M(9)
		4 V(513 473 541 543) M(9)
		4 V(527 528 544 529) M(9)
		4 V(541 542 532 543) M(9)
		4 V(542 544 528 532) M(9)
		4 V(532 530 531 543) M(9)
		4 V(535 534 533 536) M(9)
		4 V(540 539 538 537) M(9)
		4 V(550 549 548 547) M(9)
		4 V(549 550 546 545) M(9)
		4 V(368 553 554 369) M(7)
		4 V(554 553 552 551) M(7)
		4 V(560 559 556 555) M(8)
		4 V(559 558 557 556) M(8)
		4 V(556 562 561 555) M(8)
		4 V(557 563 562 556) M(8)
		4 V(558 564 563 557) M(8)
		4 V(565 564 558 559) M(8)
		4 V(566 565 559 560) M(8)
		4 V(562 565 566 561) M(8)
		4 V(563 564 565 562) M(8)
		4 V(574 570 571 569) M(8)
		4 V(568 571 570 567) M(8)
		4 V(567 573 572 568) M(8)
		4 V(574 573 567 570) M(8)
		4 V(596 595 576 575) M(10)
		4 V(576 578 577 575) M(10)
		4 V(595 598 578 576) M(10)
		4 V(597 598 595 596) M(10)
		4 V(577 597 596 575) M(10)
		4 V(584 583 580 579) M(2)
		4 V(583 582 581 580) M(2)
		4 V(580 586 585 579) M(2)
		4 V(581 587 586 580) M(2)
		4 V(582 588 587 581) M(2)
		4 V(589 588 582 583) M(2)
		4 V(590 589 583 584) M(2)
		4 V(586 589 590 585) M(2)
		4 V(587 588 589 586) M(2)
		4 V(593 594 592 591) M(9)
		4 V(608 606 614 616) M(7)
		4 V(607 609 617 615) M(7)
		4 V(606 608 609 607) M(7)
		4 V(609 608 616 617) M(7)
		4 V(611 610 614 615) M(7)
		4 V(616 614 610 612) M(7)
		4 V(611 615 617 613) M(7)
		4 V(616 612 613 617) M(7)
		4 V(614 606 607 615) M(7)
		4 V(272 619 618 271) M(3)
		4 V(619 272 273 620) M(3)
		4 V(274 621 620 273) M(3)
		4 V(271 618 621 274) M(3)
		4 V(623 622 620 621) M(3)
		4 V(619 624 625 618) M(3)
		4 V(620 622 624 619) M(3)
		4 V(625 623 621 618) M(3)
		4 V(623 626 627 622) M(3)
		4 V(622 627 628 624) M(3)
		4 V(624 628 629 625) M(3)
		4 V(625 629 626 623) M(3)
		4 V(631 629 628 630) M(3)
		4 V(630 637 636 631) M(3)
		4 V(627 626 632 633) M(3)
		4 V(277 638 639 278) M(3)
		4 V(630 628 627 633) M(3)
		4 V(641 638 277 276) M(3)
		4 V(626 629 631 632) M(3)
		4 V(278 639 640 275) M(3)
		4 V(637 641 640 636) M(3)
		4 V(634 633 632 635) M(3)
		4 V(637 630 633 634) M(3)
		4 V(635 632 631 636) M(3)
		4 V(638 634 635 639) M(3)
		4 V(641 637 634 638) M(3)
		4 V(639 635 636 640) M(3)
		4 V(641 276 275 640) M(3)
		4 V(162 642 643 165) M(10)
		4 V(642 163 166 643) M(10)
		4 V(645 644 206 205) M(0)
		4 V(169 644 645 105) M(0)
		4 V(295 314 647 646) M(10)
		4 V(297 646 647 313) M(10)
		4 V(648 645 205 308) M(9)
		4 V(648 307 105 645) M(9)
		4 V(314 165 643 647) M(10)
		4 V(313 647 643 166) M(10)
		4 V(297 96 649 646) M(10)
		4 V(295 646 649 95) M(10)
		4 V(302 651 650 98) M(9)
		4 V(204 650 651 304) M(9)
		4 V(651 648 308 304) M(9)
		4 V(651 302 307 648) M(9)
		4 V(95 649 652 107) M(10)
		4 V(108 652 649 96) M(10)
		4 V(653 650 204 203) M(9)
		4 V(98 650 653 110) M(9)
		4 V(148 654 652 108) M(2)
		4 V(107 652 654 149) M(2)
		4 V(655 653 203 202) M(9)
		4 V(655 160 110 653) M(9)
		4 V(656 655 202 318) M(9)
		4 V(656 317 160 655) M(9)
		4 V(149 654 657 116) M(2)
		4 V(148 118 657 654) M(2)
		4 V(118 292 658 657) M(9)
		4 V(116 657 658 293) M(9)
		4 V(101 660 659 100) M(9)
		4 V(103 99 659 660) M(9)
		4 V(101 115 661 660) M(9)
		4 V(103 660 661 114) M(9)
		4 V(662 661 115 102) M(9)
		4 V(114 661 662 104) M(9)
		4 V(662 663 201 104) M(9)
		4 V(662 102 155 663) M(9)
		4 V(289 664 659 99) M(9)
		4 V(664 288 100 659) M(9)
		4 V(292 288 664 658) M(9)
		4 V(293 658 664 289) M(9)
		4 V(663 155 317 656) M(9)
		4 V(201 663 656 318) M(9)
		4 V(665 30 31 666) M(3)
		4 V(30 665 667 29) M(3)
		4 V(28 29 667 668) M(3)
		4 V(668 666 31 28) M(3)
		4 V(669 665 666 670) M(3)
		4 V(669 670 5 4) M(3)
		4 V(671 669 4 7) M(3)
		4 V(667 665 669 671) M(3)
		4 V(668 667 671 672) M(3)
		4 V(6 672 671 7) M(3)
		4 V(5 670 672 6) M(3)
		4 V(670 666 668 672) M(3)
		4 V(680 681 674 673) M(13)
		4 V(679 678 681 680) M(13)
		4 V(681 676 675 674) M(13)
		4 V(678 677 676 681) M(13)
		4 V(674 683 682 673) M(3)
		4 V(675 684 683 674) M(3)
		4 V(676 685 684 675) M(3)
		4 V(677 686 685 676) M(3)
		4 V(687 686 677 678) M(3)
		4 V(688 687 678 679) M(3)
		4 V(689 688 679 680) M(3)
		4 V(682 689 680 673) M(3)
		4 V(683 690 689 682) M(3)
		4 V(690 687 688 689) M(3)
		4 V(684 685 690 683) M(3)
		4 V(685 686 687 690) M(3)
		4 V(700 699 695 696) M(3)
		4 V(699 700 692 691) M(3)
		4 V(693 692 700 701) M(3)
		4 V(696 697 701 700) M(3)
		4 V(702 701 697 698) M(3)
		4 V(694 693 701 702) M(3)
		4 V(699 702 698 695) M(3)
		4 V(702 699 691 694) M(3)
		4 V(716 717 704 715) M(13)
		4 V(714 713 703 715) M(3)
		4 V(704 713 714 715) M(13)
		4 V(703 717 716 715) M(3)
		4 V(719 720 711 704) M(13)
		4 V(707 705 706 703) M(3)
		4 V(704 706 705 707) M(13)
		4 V(703 711 720 719) M(3)
		4 V(717 718 719 704) M(13)
		4 V(703 719 718 717) M(3)
		4 V(706 708 709 703) M(3)
		4 V(704 709 708 706) M(13)
		4 V(713 712 707 703) M(3)
		4 V(704 707 712 713) M(13)
		4 V(711 710 709 704) M(13)
		4 V(703 709 710 711) M(3)
		4 V(725 729 730 726) M(3)
		4 V(722 730 729 721) M(3)
		4 V(730 722 723 731) M(3)
		4 V(731 727 726 730) M(3)
		4 V(727 731 732 728) M(3)
		4 V(731 723 724 732) M(3)
		4 V(728 732 729 725) M(3)
		4 V(721 729 732 724) M(3)
		4 V(737 741 742 738) M(3)
		4 V(734 742 741 733) M(3)
		4 V(742 734 735 743) M(3)
		4 V(743 739 738 742) M(3)
		4 V(739 743 744 740) M(3)
		4 V(743 735 736 744) M(3)
		4 V(740 744 741 737) M(3)
		4 V(733 741 744 736) M(3)
		4 V(759 760 752 751) M(3)
		4 V(753 752 760 761) M(3)
		4 V(761 762 754 753) M(3)
		4 V(762 759 751 754) M(3)
		4 V(761 763 764 762) M(3)
		4 V(766 765 760 759) M(3)
		4 V(765 763 761 760) M(3)
		4 V(762 764 766 759) M(3)
		4 V(768 767 764 763) M(3)
		4 V(769 768 763 765) M(3)
		4 V(770 769 765 766) M(3)
		4 V(767 770 766 764) M(3)
		4 V(769 770 772 771) M(3)
		4 V(777 778 771 772) M(3)
		4 V(773 767 768 774) M(3)
		4 V(768 769 771 774) M(3)
		4 V(772 770 767 773) M(3)
		4 V(781 782 778 777) M(3)
		4 V(773 774 775 776) M(3)
		4 V(774 771 778 775) M(3)
		4 V(772 773 776 777) M(3)
		4 V(776 775 779 780) M(3)
		4 V(775 778 782 779) M(3)
		4 V(777 776 780 781) M(3)
		4 V(816 797 798 783) M(1)
		4 V(815 801 800 799) M(3)
		4 V(788 789 816 787) M(1)
		4 V(810 809 815 811) M(3)
		4 V(784 785 816 783) M(1)
		4 V(814 813 815 799) M(3)
		4 V(792 793 816 791) M(1)
		4 V(806 805 815 807) M(3)
		4 V(803 802 801 815) M(3)
		4 V(808 807 815 809) M(3)
		4 V(786 787 816 785) M(1)
		4 V(794 795 816 793) M(1)
		4 V(795 796 797 816) M(1)
		4 V(790 791 816 789) M(1)
		4 V(812 811 815 813) M(3)
		4 V(804 803 815 805) M(3)
		4 V(818 817 795 794) M(3)
		4 V(817 818 810 811) M(3)
		4 V(795 817 819 796) M(3)
		4 V(819 817 811 812) M(3)
		4 V(820 818 794 793) M(3)
		4 V(818 820 809 810) M(3)
		4 V(796 819 821 797) M(3)
		4 V(821 819 812 813) M(3)
		4 V(822 820 793 792) M(3)
		4 V(820 822 808 809) M(3)
		4 V(797 821 823 798) M(3)
		4 V(823 821 813 814) M(3)
		4 V(824 822 792 791) M(3)
		4 V(822 824 807 808) M(3)
		4 V(798 823 825 783) M(3)
		4 V(825 823 814 799) M(3)
		4 V(783 825 826 784) M(3)
		4 V(826 825 799 800) M(3)
		4 V(827 824 791 790) M(3)
		4 V(824 827 806 807) M(3)
		4 V(784 826 828 785) M(3)
		4 V(828 826 800 801) M(3)
		4 V(829 827 790 789) M(3)
		4 V(827 829 805 806) M(3)
		4 V(830 829 789 788) M(3)
		4 V(829 830 804 805) M(3)
		4 V(785 828 831 786) M(3)
		4 V(831 828 801 802) M(3)
		4 V(786 831 832 787) M(3)
		4 V(832 831 802 803) M(3)
		4 V(832 830 788 787) M(3)
		4 V(830 832 803 804) M(3)
		4 V(870 874 92 83) M(0)
		4 V(87 843 839 85) M(9)
		4 V(89 854 843 87) M(9)
		4 V(835 84 88 847) M(10)
		4 V(893 892 855 842) M(9)
		4 V(849 853 852 837) M(9)
		4 V(905 906 851 845) M(0)
		4 V(872 870 875 871) M(0)
		4 V(863 874 873 877) M(0)
		4 V(906 863 877 878) M(0)
		4 V(86 844 854 89) M(9)
		4 V(849 896 897 853) M(2)
		4 V(850 838 852 853) M(9)
		4 V(882 846 851 876) M(0)
		4 V(882 879 862 846) M(0)
		4 V(871 875 857 880) M(0)
		4 V(880 857 859 881) M(0)
		4 V(881 859 862 879) M(0)
		4 V(837 860 861 849) M(9)
		4 V(861 895 896 849) M(2)
		4 V(878 876 851 906) M(0)
		4 V(834 82 92 874) M(0)
		4 V(833 834 874 863) M(0)
		4 V(905 833 863 906) M(0)
		4 V(865 878 877 873) M(0)
		4 V(867 876 878 865) M(0)
		4 V(866 882 876 867) M(0)
		4 V(879 882 866 869) M(0)
		4 V(881 879 869 868) M(0)
		4 V(880 881 868 871) M(0)
		4 V(864 865 873 872) M(0)
		4 V(864 866 867 865) M(0)
		4 V(864 868 869 866) M(0)
		4 V(864 872 871 868) M(0)
		4 V(872 873 874 870) M(0)
		4 V(83 91 875 870) M(0)
		4 V(836 848 886 885) M(10)
		4 V(848 887 894 886) M(9)
		4 V(888 150 90 856) M(2)
		4 V(150 888 847 88) M(2)
		4 V(850 853 897 898) M(9)
		4 V(858 889 894 887) M(9)
		4 V(841 855 892 891) M(9)
		4 V(840 841 891 890) M(9)
		4 V(161 167 902 899) M(10)
		4 V(903 901 904 900) M(10)
		4 V(171 908 922 191) M(0)
		4 V(919 909 907 918) M(10)
		4 V(911 912 909 914) M(10)
		4 V(912 911 915 910) M(10)
		4 V(913 173 172 907) M(10)
		4 V(173 913 908 171) M(10)
		4 V(912 913 907 909) M(10)
		4 V(912 910 908 913) M(10)
		4 V(908 910 924 922) M(0)
		4 V(916 920 915 911) M(10)
		4 V(917 916 911 914) M(10)
		4 V(918 907 172 185) M(10)
		4 V(920 924 910 915) M(0)
		4 V(917 914 909 919) M(10)
		4 V(923 916 917 919) M(10)
		4 V(923 924 920 916) M(10)
		4 V(921 922 924 923) M(10)
		4 V(189 191 922 921) M(10)
		4 V(834 930 199 82) M(0)
		4 V(833 905 930 834) M(0)
		4 V(195 196 927 926) M(9)
		4 V(196 197 928 927) M(9)
		4 V(198 199 930 929) M(0)
		4 V(86 200 925 844) M(9)
		4 V(932 933 934 931) M(8)
		4 V(935 938 937 936) M(8)
		4 V(940 939 936 937) M(8)
		4 V(939 940 933 932) M(8)
		4 V(939 941 935 936) M(8)
		4 V(941 939 932 931) M(8)
		4 V(938 942 940 937) M(8)
		4 V(940 942 934 933) M(8)
		4 V(944 945 946 943) M(8)
		4 V(947 948 951 952) M(8)
		4 V(952 951 945 944) M(8)
		4 V(949 952 944 943) M(8)
		4 V(951 950 946 945) M(8)
		4 V(954 958 957 953) M(8)
		4 V(960 964 963 959) M(8)
		4 V(966 973 972 965) M(13)
		4 V(973 970 971 972) M(13)
		4 V(967 968 973 966) M(13)
		4 V(968 969 970 973) M(13)
		4 V(974 975 966 965) M(3)
		4 V(975 976 967 966) M(3)
		4 V(976 977 968 967) M(3)
		4 V(977 978 969 968) M(3)
		4 V(969 978 979 970) M(3)
		4 V(970 979 980 971) M(3)
		4 V(971 980 981 972) M(3)
		4 V(972 981 974 965) M(3)
		4 V(981 982 975 974) M(3)
		4 V(980 979 982 981) M(3)
		4 V(982 977 976 975) M(3)
		4 V(979 978 977 982) M(3)
		4 V(987 988 984 983) M(3)
		4 V(988 989 985 984) M(3)
		4 V(985 989 990 986) M(3)
		4 V(986 990 987 983) M(3)
		4 V(991 992 988 987) M(3)
		4 V(992 993 989 988) M(3)
		4 V(989 993 994 990) M(3)
		4 V(990 994 991 987) M(3)
		4 V(995 996 992 991) M(3)
		4 V(996 997 993 992) M(3)
		4 V(993 997 998 994) M(3)
		4 V(994 998 995 991) M(3)
		4 V(1003 279 143 883) M(0)
		4 V(279 1003 875 91) M(0)
		4 V(884 1004 1003 883) M(0)
		4 V(1004 857 875 1003) M(0)
		4 V(859 857 1004 1005) M(9)
		4 V(1005 1004 884 904) M(9)
		4 V(862 859 1005 1006) M(9)
		4 V(1006 1005 904 901) M(9)
		4 V(885 886 1008 1007) M(9)
		4 V(1007 1008 861 860) M(9)
		4 V(886 894 1009 1008) M(2)
		4 V(1008 1009 895 861) M(2)
		4 V(1010 1011 840 890) M(9)
		4 V(1012 290 85 839) M(9)
		4 V(1014 1013 889 858) M(9)
		4 V(1011 1010 1013 1014) M(9)
		4 V(290 1012 1015 294) M(9)
		4 V(294 1015 856 90) M(9)
		4 V(1033 315 296 1016) M(10)
		4 V(84 835 1016 296) M(10)
		4 V(1031 1032 1017 1018) M(10)
		4 V(836 885 1018 1017) M(10)
		4 V(1007 1019 1018 885) M(9)
		4 V(1030 1031 1018 1019) M(9)
		4 V(860 1020 1019 1007) M(9)
		4 V(1030 1029 862 1006) M(9)
		4 V(1029 1028 846 862) M(9)
		4 V(860 837 1021 1020) M(9)
		4 V(1026 1025 1023 1022) M(9)
		4 V(852 838 1022 1023) M(9)
		4 V(852 1023 1021 837) M(9)
		4 V(1025 1028 1021 1023) M(9)
		4 V(929 1027 316 198) M(9)
		4 V(305 1024 928 197) M(9)
		4 V(902 167 315 1033) M(10)
		4 V(901 903 1032 1031) M(10)
		4 V(1006 901 1031 1030) M(9)
		4 V(1019 1020 1029 1030) M(9)
		4 V(1020 1021 1028 1029) M(9)
		4 V(845 851 1025 1026) M(9)
		4 V(851 846 1028 1025) M(9)
		4 V(1024 305 316 1027) M(9)
		4 V(319 195 926 1035) M(9)
		4 V(319 1035 925 200) M(9)
		4 V(1036 1034 898 897) M(9)
		4 V(1034 1036 892 893) M(9)
		4 V(1036 1037 891 892) M(9)
		4 V(1037 1036 897 896) M(2)
		4 V(1037 1038 890 891) M(9)
		4 V(1037 896 895 1038) M(2)
		4 V(1039 1038 895 1009) M(2)
		4 V(1039 1010 890 1038) M(9)
		4 V(894 889 1039 1009) M(2)
		4 V(1013 1010 1039 889) M(9)
		4 V(1042 1043 1040 1041) M(10)
		4 V(1040 1043 1045 1044) M(10)
		4 V(1050 1051 1044 1045) M(10)
		4 V(1051 1050 1047 1046) M(10)
		4 V(1052 1053 1049 1048) M(10)
		4 V(1053 1052 1046 1047) M(10)
		4 V(328 1056 1054 324) M(10)
		4 V(1056 1057 1055 1054) M(10)
		4 V(1059 1060 1055 1057) M(10)
		4 V(1058 1061 1060 1059) M(10)
		4 V(1455 1066 1067 1456) M(8)
		4 V(1454 1065 1066 1455) M(8)
		4 V(1451 1064 1065 1454) M(8)
		4 V(1452 1063 1064 1451) M(8)
		4 V(1453 1062 1063 1452) M(8)
		4 V(958 1068 1069 957) M(8)
		4 V(1068 955 956 1069) M(8)
		4 V(964 1070 1071 963) M(8)
		4 V(962 1071 1070 961) M(8)
		4 V(1073 1077 1076 1072) M(8)
		4 V(1077 1078 1079 1076) M(8)
		4 V(1075 1079 1078 1074) M(8)
		4 V(1081 1091 1090 1080) M(9)
		4 V(1082 1086 1091 1081) M(9)
		4 V(1086 1087 1088 1091) M(9)
		4 V(1091 1088 1089 1090) M(9)
		4 V(1089 1088 1084 1083) M(9)
		4 V(1088 1087 1085 1084) M(9)
		4 V(1090 1099 1092 1080) M(9)
		4 V(1099 1096 1093 1092) M(9)
		4 V(1098 1097 1096 1099) M(9)
		4 V(1089 1098 1099 1090) M(9)
		4 V(1094 1098 1089 1083) M(9)
		4 V(1095 1097 1098 1094) M(9)
		4 V(1133 1114 1115 1100) M(1)
		4 V(1132 1118 1117 1116) M(3)
		4 V(1105 1106 1133 1104) M(1)
		4 V(1127 1126 1132 1128) M(3)
		4 V(1101 1102 1133 1100) M(1)
		4 V(1131 1130 1132 1116) M(3)
		4 V(1109 1110 1133 1108) M(1)
		4 V(1123 1122 1132 1124) M(3)
		4 V(1120 1119 1118 1132) M(3)
		4 V(1125 1124 1132 1126) M(3)
		4 V(1103 1104 1133 1102) M(1)
		4 V(1111 1112 1133 1110) M(1)
		4 V(1112 1113 1114 1133) M(1)
		4 V(1107 1108 1133 1106) M(1)
		4 V(1129 1128 1132 1130) M(3)
		4 V(1121 1120 1132 1122) M(3)
		4 V(1135 1134 1112 1111) M(3)
		4 V(1134 1135 1127 1128) M(3)
		4 V(1112 1134 1136 1113) M(3)
		4 V(1136 1134 1128 1129) M(3)
		4 V(1137 1135 1111 1110) M(3)
		4 V(1135 1137 1126 1127) M(3)
		4 V(1113 1136 1138 1114) M(3)
		4 V(1138 1136 1129 1130) M(3)
		4 V(1139 1137 1110 1109) M(3)
		4 V(1137 1139 1125 1126) M(3)
		4 V(1114 1138 1140 1115) M(3)
		4 V(1140 1138 1130 1131) M(3)
		4 V(1141 1139 1109 1108) M(3)
		4 V(1139 1141 1124 1125) M(3)
		4 V(1115 1140 1142 1100) M(3)
		4 V(1142 1140 1131 1116) M(3)
		4 V(1100 1142 1143 1101) M(3)
		4 V(1143 1142 1116 1117) M(3)
		4 V(1144 1141 1108 1107) M(3)
		4 V(1141 1144 1123 1124) M(3)
		4 V(1101 1143 1145 1102) M(3)
		4 V(1145 1143 1117 1118) M(3)
		4 V(1146 1144 1107 1106) M(3)
		4 V(1144 1146 1122 1123) M(3)
		4 V(1147 1146 1106 1105) M(3)
		4 V(1146 1147 1121 1122) M(3)
		4 V(1102 1145 1148 1103) M(3)
		4 V(1148 1145 1118 1119) M(3)
		4 V(1103 1148 1149 1104) M(3)
		4 V(1149 1148 1119 1120) M(3)
		4 V(1149 1147 1105 1104) M(3)
		4 V(1147 1149 1120 1121) M(3)
		4 V(1183 1164 1165 1150) M(1)
		4 V(1182 1168 1167 1166) M(3)
		4 V(1155 1156 1183 1154) M(1)
		4 V(1177 1176 1182 1178) M(3)
		4 V(1151 1152 1183 1150) M(1)
		4 V(1181 1180 1182 1166) M(3)
		4 V(1159 1160 1183 1158) M(1)
		4 V(1173 1172 1182 1174) M(3)
		4 V(1170 1169 1168 1182) M(3)
		4 V(1175 1174 1182 1176) M(3)
		4 V(1153 1154 1183 1152) M(1)
		4 V(1161 1162 1183 1160) M(1)
		4 V(1162 1163 1164 1183) M(1)
		4 V(1157 1158 1183 1156) M(1)
		4 V(1179 1178 1182 1180) M(3)
		4 V(1171 1170 1182 1172) M(3)
		4 V(1185 1184 1162 1161) M(3)
		4 V(1184 1185 1177 1178) M(3)
		4 V(1162 1184 1186 1163) M(3)
		4 V(1186 1184 1178 1179) M(3)
		4 V(1187 1185 1161 1160) M(3)
		4 V(1185 1187 1176 1177) M(3)
		4 V(1163 1186 1188 1164) M(3)
		4 V(1188 1186 1179 1180) M(3)
		4 V(1189 1187 1160 1159) M(3)
		4 V(1187 1189 1175 1176) M(3)
		4 V(1164 1188 1190 1165) M(3)
		4 V(1190 1188 1180 1181) M(3)
		4 V(1191 1189 1159 1158) M(3)
		4 V(1189 1191 1174 1175) M(3)
		4 V(1165 1190 1192 1150) M(3)
		4 V(1192 1190 1181 1166) M(3)
		4 V(1150 1192 1193 1151) M(3)
		4 V(1193 1192 1166 1167) M(3)
		4 V(1194 1191 1158 1157) M(3)
		4 V(1191 1194 1173 1174) M(3)
		4 V(1151 1193 1195 1152) M(3)
		4 V(1195 1193 1167 1168) M(3)
		4 V(1196 1194 1157 1156) M(3)
		4 V(1194 1196 1172 1173) M(3)
		4 V(1197 1196 1156 1155) M(3)
		4 V(1196 1197 1171 1172) M(3)
		4 V(1152 1195 1198 1153) M(3)
		4 V(1198 1195 1168 1169) M(3)
		4 V(1153 1198 1199 1154) M(3)
		4 V(1199 1198 1169 1170) M(3)
		4 V(1199 1197 1155 1154) M(3)
		4 V(1197 1199 1170 1171) M(3)
		4 V(1222 1225 510 506) M(9)
		4 V(1222 1223 1224 1225) M(9)
		4 V(1204 1251 1237 1236) M(9)
		4 V(1227 1250 1228 1226) M(9)
		4 V(1248 1249 1201 1200) M(9)
		4 V(1204 1201 1249 1251) M(9)
		4 V(1212 1224 1201 1204) M(9)
		4 V(1223 1226 1228 1224) M(9)
		4 V(1202 1215 1212 1204) M(9)
		4 V(1215 1202 1203 1214) M(9)
		4 V(1236 1235 1202 1204) M(9)
		4 V(1202 1235 1234 1203) M(9)
		4 V(1205 1213 1214 1203) M(9)
		4 V(1213 1205 472 494) M(9)
		4 V(1233 1205 1203 1234) M(9)
		4 V(1205 1233 522 472) M(9)
		4 V(1237 1206 1232 1236) M(9)
		4 V(1232 1206 525 524) M(9)
		4 V(1225 1211 491 510) M(9)
		4 V(1211 1225 1224 1212) M(9)
		4 V(1231 1230 475 478) M(9)
		4 V(475 1230 1222 506) M(9)
		4 V(1222 1230 1226 1223) M(9)
		4 V(1212 1215 1207 1211) M(9)
		4 V(1208 1235 1236 1232) M(9)
		4 V(494 484 1207 1213) M(9)
		4 V(1207 484 491 1211) M(9)
		4 V(524 485 1208 1232) M(9)
		4 V(1208 485 522 1233) M(9)
		4 V(1214 1213 1207 1215) M(9)
		4 V(1233 1234 1235 1208) M(9)
		4 V(1210 488 489 1209) M(9)
		4 V(1216 1217 1218 1219) M(4)
		4 V(502 1220 1229 515) M(9)
		4 V(515 1229 1221 503) M(9)
		4 V(1230 1231 1227 1226) M(9)
		4 V(1200 1201 1224 1228) M(9)
		4 V(1248 1200 1228 1250) M(9)
		4 V(1251 1239 1238 1240) M(9)
		4 V(1243 1249 1248 1250) M(9)
		4 V(1239 1251 1249 1243) M(9)
		4 V(1242 1241 1243 1250) M(9)
		4 V(1244 534 535 1245) M(9)
		4 V(1246 1247 540 537) M(9)
		4 V(1255 1256 1257 1254) M(9)
		4 V(1253 1257 1256 1252) M(9)
		4 V(1261 1260 1096 1097) M(7)
		4 V(1259 1260 1261 1258) M(7)
		4 V(1263 1266 1267 1262) M(8)
		4 V(1264 1265 1266 1263) M(8)
		4 V(1268 1269 1263 1262) M(8)
		4 V(1269 1270 1264 1263) M(8)
		4 V(1270 1271 1265 1264) M(8)
		4 V(1265 1271 1272 1266) M(8)
		4 V(1266 1272 1273 1267) M(8)
		4 V(1273 1272 1269 1268) M(8)
		4 V(1272 1271 1270 1269) M(8)
		4 V(571 1275 1277 569) M(8)
		4 V(1275 571 568 1274) M(8)
		4 V(572 1276 1274 568) M(8)
		4 V(1274 1276 1277 1275) M(8)
		4 V(1279 1296 1297 1278) M(10)
		4 V(577 578 1279 1278) M(10)
		4 V(578 598 1296 1279) M(10)
		4 V(1296 598 597 1297) M(10)
		4 V(1297 597 577 1278) M(10)
		4 V(1281 1284 1285 1280) M(2)
		4 V(1282 1283 1284 1281) M(2)
		4 V(1286 1287 1281 1280) M(2)
		4 V(1287 1288 1282 1281) M(2)
		4 V(1288 1289 1283 1282) M(2)
		4 V(1283 1289 1290 1284) M(2)
		4 V(1284 1290 1291 1285) M(2)
		4 V(1291 1290 1287 1286) M(2)
		4 V(1290 1289 1288 1287) M(2)
		4 V(1293 1295 1294 1292) M(9)
		4 V(1304 1303 600 601) M(2)
		4 V(1305 1304 601 602) M(2)
		4 V(602 603 1307 1305) M(2)
		4 V(603 604 1309 1307) M(2)
		4 V(1311 605 599 1302) M(2)
		4 V(1304 1300 1299 1303) M(2)
		4 V(1301 1300 1304 1305) M(2)
		4 V(1307 1306 1301 1305) M(2)
		4 V(1307 1309 1308 1306) M(2)
		4 V(1310 1308 1309 1311) M(2)
		4 V(1298 1310 1311 1302) M(2)
		4 V(1320 1312 1314 1322) M(7)
		4 V(1323 1315 1313 1321) M(7)
		4 V(1315 1314 1312 1313) M(7)
		4 V(1322 1314 1315 1323) M(7)
		4 V(1320 1316 1317 1321) M(7)
		4 V(1316 1320 1322 1318) M(7)
		4 V(1323 1321 1317 1319) M(7)
		4 V(1319 1318 1322 1323) M(7)
		4 V(1313 1312 1320 1321) M(7)
		4 V(1311 1309 604 605) M(2)
		4 V(1324 1325 996 995) M(3)
		4 V(997 996 1325 1326) M(3)
		4 V(1326 1327 998 997) M(3)
		4 V(1327 1324 995 998) M(3)
		4 V(1326 1328 1329 1327) M(3)
		4 V(1331 1330 1325 1324) M(3)
		4 V(1330 1328 1326 1325) M(3)
		4 V(1327 1329 1331 1324) M(3)
		4 V(1333 1332 1329 1328) M(3)
		4 V(1334 1333 1328 1330) M(3)
		4 V(1335 1334 1330 1331) M(3)
		4 V(1332 1335 1331 1329) M(3)
		4 V(1334 1335 1337 1336) M(3)
		4 V(1342 1343 1336 1337) M(3)
		4 V(1338 1332 1333 1339) M(3)
		4 V(1345 1344 1001 1002) M(3)
		4 V(1333 1334 1336 1339) M(3)
		4 V(1001 1344 1347 1000) M(3)
		4 V(1337 1335 1332 1338) M(3)
		4 V(1346 1345 1002 999) M(3)
		4 V(1346 1347 1343 1342) M(3)
		4 V(1338 1339 1340 1341) M(3)
		4 V(1339 1336 1343 1340) M(3)
		4 V(1337 1338 1341 1342) M(3)
		4 V(1341 1340 1344 1345) M(3)
		4 V(1340 1343 1347 1344) M(3)
		4 V(1342 1341 1345 1346) M(3)
		4 V(999 1000 1347 1346) M(3)
		4 V(1349 1348 899 902) M(10)
		4 V(903 900 1348 1349) M(10)
		4 V(930 1350 1351 929) M(0)
		4 V(1351 1350 905 845) M(0)
		4 V(1353 1033 1016 1352) M(10)
		4 V(1353 1352 1017 1032) M(10)
		4 V(929 1351 1354 1027) M(9)
		4 V(845 1026 1354 1351) M(9)
		4 V(1349 902 1033 1353) M(10)
		4 V(1349 1353 1032 903) M(10)
		4 V(1355 836 1017 1352) M(10)
		4 V(1355 1352 1016 835) M(10)
		4 V(1356 1357 1022 838) M(9)
		4 V(1357 1356 928 1024) M(9)
		4 V(1027 1354 1357 1024) M(9)
		4 V(1026 1022 1357 1354) M(9)
		4 V(1358 1355 835 847) M(10)
		4 V(1355 1358 848 836) M(10)
		4 V(928 1356 1359 927) M(9)
		4 V(1359 1356 838 850) M(9)
		4 V(1358 1360 887 848) M(2)
		4 V(1360 1358 847 888) M(2)
		4 V(927 1359 1361 926) M(9)
		4 V(850 898 1361 1359) M(9)
		4 V(926 1361 1362 1035) M(9)
		4 V(898 1034 1362 1361) M(9)
		4 V(1363 1360 888 856) M(2)
		4 V(1363 858 887 1360) M(2)
		4 V(1364 1014 858 1363) M(9)
		4 V(1364 1363 856 1015) M(9)
		4 V(1365 1366 841 840) M(9)
		4 V(1365 839 843 1366) M(9)
		4 V(1367 855 841 1366) M(9)
		4 V(1367 1366 843 854) M(9)
		4 V(855 1367 1368 842) M(9)
		4 V(1368 1367 854 844) M(9)
		4 V(925 1369 1368 844) M(9)
		4 V(893 842 1368 1369) M(9)
		4 V(1365 1370 1012 839) M(9)
		4 V(840 1011 1370 1365) M(9)
		4 V(1370 1011 1014 1364) M(9)
		4 V(1370 1364 1015 1012) M(9)
		4 V(1034 893 1369 1362) M(9)
		4 V(1362 1369 925 1035) M(9)
		4 V(782 781 1371 1372) M(3)
		4 V(1373 1371 781 780) M(3)
		4 V(1373 780 779 1374) M(3)
		4 V(782 1372 1374 779) M(3)
		4 V(1372 1371 1375 1376) M(3)
		4 V(756 1376 1375 755) M(3)
		4 V(755 1375 1377 758) M(3)
		4 V(1375 1371 1373 1377) M(3)
		4 V(1377 1373 1374 1378) M(3)
		4 V(1377 1378 757 758) M(3)
		4 V(1378 1376 756 757) M(3)
		4 V(1374 1372 1376 1378) M(3)
		4 V(1380 1387 1386 1379) M(13)
		4 V(1387 1384 1385 1386) M(13)
		4 V(1381 1382 1387 1380) M(13)
		4 V(1382 1383 1384 1387) M(13)
		4 V(1388 1389 1380 1379) M(3)
		4 V(1389 1390 1381 1380) M(3)
		4 V(1390 1391 1382 1381) M(3)
		4 V(1391 1392 1383 1382) M(3)
		4 V(1383 1392 1393 1384) M(3)
		4 V(1384 1393 1394 1385) M(3)
		4 V(1385 1394 1395 1386) M(3)
		4 V(1386 1395 1388 1379) M(3)
		4 V(1395 1396 1389 1388) M(3)
		4 V(1394 1393 1396 1395) M(3)
		4 V(1396 1391 1390 1389) M(3)
		4 V(1393 1392 1391 1396) M(3)
		4 V(1401 1405 1406 1402) M(3)
		4 V(1398 1406 1405 1397) M(3)
		4 V(1406 1398 1399 1407) M(3)
		4 V(1407 1403 1402 1406) M(3)
		4 V(1403 1407 1408 1404) M(3)
		4 V(1407 1399 1400 1408) M(3)
		4 V(1404 1408 1405 1401) M(3)
		4 V(1397 1405 1408 1400) M(3)
		4 V(1410 1423 1422 1421) M(13)
		4 V(1409 1419 1420 1421) M(3)
		4 V(1420 1419 1410 1421) M(13)
		4 V(1422 1423 1409 1421) M(3)
		4 V(1417 1426 1425 1410) M(13)
		4 V(1412 1411 1413 1409) M(3)
		4 V(1411 1412 1410 1413) M(13)
		4 V(1426 1417 1409 1425) M(3)
		4 V(1425 1424 1423 1410) M(13)
		4 V(1424 1425 1409 1423) M(3)
		4 V(1415 1414 1412 1409) M(3)
		4 V(1414 1415 1410 1412) M(13)
		4 V(1413 1418 1419 1409) M(3)
		4 V(1418 1413 1410 1419) M(13)
		4 V(1415 1416 1417 1410) M(13)
		4 V(1416 1415 1409 1417) M(3)
		4 V(1436 1435 1431 1432) M(3)
		4 V(1435 1436 1428 1427) M(3)
		4 V(1429 1428 1436 1437) M(3)
		4 V(1432 1433 1437 1436) M(3)
		4 V(1438 1437 1433 1434) M(3)
		4 V(1430 1429 1437 1438) M(3)
		4 V(1435 1438 1434 1431) M(3)
		4 V(1438 1435 1427 1430) M(3)
		4 V(1448 1447 1443 1444) M(3)
		4 V(1447 1448 1440 1439) M(3)
		4 V(1441 1440 1448 1449) M(3)
		4 V(1444 1445 1449 1448) M(3)
		4 V(1450 1449 1445 1446) M(3)
		4 V(1442 1441 1449 1450) M(3)
		4 V(1447 1450 1446 1443) M(3)
		4 V(1450 1447 1439 1442) M(3)
		4 V(1459 1458 1457 1469) M(8)
		4 V(1462 1461 1479 1480) M(8)
		4 V(1463 1470 1469 1457) M(8)
		4 V(1479 1461 1470 1463) M(8)
		4 V(1462 1464 1465 1461) M(8)
		4 V(1460 1467 1466 1468) M(8)
		4 V(1470 1468 1466 1469) M(8)
		4 V(1461 1465 1468 1470) M(8)
		4 V(1465 1464 1460 1468) M(8)
		4 V(1471 1458 1459 1477) M(8)
		4 V(1481 1472 1462 1480) M(8)
		4 V(1477 1478 1473 1471) M(8)
		4 V(1478 1472 1481 1473) M(8)
		4 V(1474 1464 1462 1472) M(8)
		4 V(1475 1467 1460 1476) M(8)
		4 V(1475 1476 1478 1477) M(8)
		4 V(1476 1474 1472 1478) M(8)
		4 V(1460 1464 1474 1476) M(8)
	}
}
Eof
